##TITLE= Y.Matt YM20 F1
##JCAMP-DX= 5.01  $$ datafile exported by Spectragryph v.1.2.14
##LONGDATE= 12/07/2017 10:17:24
##OWNER= unknown
##ORIGIN= unknown
##DATA TYPE= INFRARED SPECTRUM
##DATA CLASS= XYDATA
##SPECTROMETER/DATASYSTEM= unknown
##XUNITS= 1/CM
##YUNITS= TRANSMITTANCE
##XLABEL= Wavenumbers [1/cm]
##YLABEL= Transmittance
##XFACTOR= 1.000000
##YFACTOR= 1.000000
##FIRSTX= 3997.453000
##LASTX= 374.000000
##DELTAX= -1.416530
##NPOINTS= 2559
##XYDATA= (X++(Y..Y))
3997.453 0.81030 0.81016 0.80983 0.80965 0.80977 0.81013 0.81057 0.81081 0.81064 0.81011
3983.288 0.80958 0.80943 0.80966 0.80984 0.80966 0.80943 0.80969 0.81041 0.81109 0.81144
3969.122 0.81157 0.81163 0.81166 0.81164 0.81161 0.81160 0.81159 0.81151 0.81136 0.81121
3954.957 0.81100 0.81069 0.81045 0.81063 0.81134 0.81214 0.81240 0.81220 0.81224 0.81281
3940.792 0.81318 0.81278 0.81189 0.81114 0.81078 0.81088 0.81146 0.81221 0.81244 0.81184
3926.626 0.81098 0.81084 0.81162 0.81231 0.81207 0.81138 0.81131 0.81209 0.81278 0.81262
3912.461 0.81193 0.81132 0.81083 0.81012 0.80915 0.80850 0.80879 0.81004 0.81180 0.81359
3898.296 0.81467 0.81434 0.81273 0.81091 0.81044 0.81168 0.81261 0.81185 0.81073 0.81089
3884.130 0.81153 0.81112 0.81073 0.81172 0.81267 0.81203 0.81071 0.81014 0.81045 0.81135
3869.965 0.81299 0.81433 0.81411 0.81331 0.81378 0.81543 0.81631 0.81551 0.81346 0.81083
3855.800 0.80875 0.80956 0.81430 0.81799 0.81774 0.81571 0.81357 0.81171 0.81018 0.80905
3841.634 0.80853 0.80905 0.81103 0.81360 0.81493 0.81488 0.81470 0.81495 0.81503 0.81459
3827.469 0.81422 0.81412 0.81353 0.81234 0.81207 0.81338 0.81424 0.81425 0.81521 0.81697
3813.304 0.81738 0.81601 0.81400 0.81261 0.81274 0.81367 0.81326 0.81149 0.81085 0.81234
3799.139 0.81357 0.81366 0.81401 0.81492 0.81528 0.81473 0.81390 0.81335 0.81326 0.81369
3784.973 0.81435 0.81453 0.81404 0.81378 0.81450 0.81553 0.81576 0.81526 0.81462 0.81428
3770.808 0.81466 0.81566 0.81647 0.81677 0.81692 0.81670 0.81574 0.81471 0.81471 0.81547
3756.643 0.81541 0.81392 0.81191 0.81132 0.81384 0.81724 0.81767 0.81597 0.81556 0.81795
3742.477 0.82007 0.81940 0.81682 0.81396 0.81258 0.81421 0.81782 0.82019 0.82013 0.81862
3728.312 0.81680 0.81539 0.81479 0.81499 0.81586 0.81704 0.81777 0.81748 0.81627 0.81456
3714.147 0.81293 0.81257 0.81442 0.81693 0.81787 0.81733 0.81627 0.81562 0.81632 0.81816
3699.981 0.81930 0.81881 0.81761 0.81651 0.81528 0.81366 0.81245 0.81329 0.81636 0.81895
3685.816 0.81931 0.81818 0.81675 0.81563 0.81470 0.81367 0.81330 0.81531 0.81854 0.81940
3671.651 0.81840 0.81845 0.82004 0.82079 0.82002 0.81886 0.81797 0.81715 0.81608 0.81510
3657.485 0.81519 0.81644 0.81689 0.81508 0.81216 0.81111 0.81444 0.81929 0.82117 0.82038
3643.320 0.81886 0.81776 0.81737 0.81742 0.81756 0.81755 0.81727 0.81650 0.81531 0.81483
3629.155 0.81700 0.82067 0.82188 0.82037 0.81805 0.81615 0.81546 0.81648 0.81839 0.81952
3614.989 0.81972 0.81969 0.81951 0.81906 0.81896 0.81966 0.82029 0.81987 0.81865 0.81757
3600.824 0.81719 0.81727 0.81727 0.81721 0.81757 0.81830 0.81854 0.81780 0.81706 0.81788
3586.659 0.82004 0.82105 0.82017 0.81888 0.81842 0.81875 0.81905 0.81885 0.81843 0.81811
3572.493 0.81764 0.81661 0.81528 0.81484 0.81626 0.81833 0.81914 0.81868 0.81799 0.81772
3558.328 0.81779 0.81794 0.81813 0.81844 0.81875 0.81864 0.81788 0.81697 0.81674 0.81743
3544.163 0.81820 0.81820 0.81759 0.81704 0.81693 0.81713 0.81728 0.81712 0.81673 0.81635
3529.997 0.81621 0.81643 0.81677 0.81701 0.81730 0.81785 0.81843 0.81864 0.81850 0.81828
3515.832 0.81804 0.81760 0.81701 0.81661 0.81668 0.81698 0.81711 0.81699 0.81685 0.81688
3501.667 0.81697 0.81695 0.81679 0.81661 0.81658 0.81681 0.81717 0.81731 0.81707 0.81660
3487.501 0.81619 0.81606 0.81631 0.81690 0.81754 0.81786 0.81775 0.81741 0.81715 0.81714
3473.336 0.81729 0.81733 0.81707 0.81660 0.81611 0.81578 0.81577 0.81605 0.81640 0.81661
3459.171 0.81678 0.81707 0.81743 0.81760 0.81744 0.81709 0.81682 0.81680 0.81704 0.81735
3445.006 0.81754 0.81759 0.81761 0.81766 0.81769 0.81762 0.81746 0.81743 0.81757 0.81765
3430.840 0.81745 0.81720 0.81723 0.81748 0.81756 0.81729 0.81690 0.81672 0.81686 0.81713
3416.675 0.81732 0.81737 0.81734 0.81730 0.81740 0.81767 0.81796 0.81803 0.81777 0.81725
3402.510 0.81668 0.81635 0.81637 0.81666 0.81695 0.81706 0.81711 0.81733 0.81767 0.81781
3388.344 0.81766 0.81753 0.81772 0.81817 0.81870 0.81914 0.81935 0.81914 0.81854 0.81787
3374.179 0.81747 0.81736 0.81724 0.81696 0.81672 0.81691 0.81758 0.81848 0.81919 0.81948
3360.014 0.81941 0.81936 0.81950 0.81962 0.81940 0.81893 0.81856 0.81846 0.81855 0.81876
3345.848 0.81901 0.81922 0.81936 0.81942 0.81935 0.81913 0.81893 0.81895 0.81919 0.81947
3331.683 0.81956 0.81937 0.81904 0.81884 0.81888 0.81910 0.81926 0.81909 0.81865 0.81833
3317.518 0.81853 0.81910 0.81959 0.81973 0.81967 0.81973 0.82000 0.82039 0.82069 0.82078
3303.352 0.82074 0.82072 0.82081 0.82081 0.82055 0.82011 0.81982 0.81992 0.82033 0.82071
3289.187 0.82091 0.82114 0.82154 0.82187 0.82180 0.82134 0.82073 0.82026 0.82008 0.82021
3275.022 0.82054 0.82099 0.82138 0.82154 0.82153 0.82167 0.82211 0.82262 0.82288 0.82288
3260.856 0.82292 0.82324 0.82378 0.82428 0.82453 0.82441 0.82389 0.82312 0.82244 0.82202
3246.691 0.82193 0.82216 0.82262 0.82299 0.82309 0.82307 0.82307 0.82299 0.82276 0.82260
3232.526 0.82271 0.82304 0.82342 0.82374 0.82386 0.82369 0.82342 0.82330 0.82331 0.82335
3218.360 0.82342 0.82360 0.82385 0.82402 0.82404 0.82389 0.82372 0.82378 0.82418 0.82464
3204.195 0.82487 0.82482 0.82470 0.82474 0.82512 0.82578 0.82636 0.82652 0.82630 0.82599
3190.030 0.82581 0.82577 0.82586 0.82605 0.82629 0.82649 0.82657 0.82652 0.82641 0.82630
3175.864 0.82616 0.82602 0.82598 0.82604 0.82608 0.82600 0.82584 0.82583 0.82613 0.82667
3161.699 0.82720 0.82755 0.82760 0.82733 0.82674 0.82604 0.82558 0.82562 0.82598 0.82627
3147.534 0.82641 0.82661 0.82697 0.82725 0.82718 0.82683 0.82648 0.82635 0.82643 0.82654
3133.369 0.82652 0.82619 0.82559 0.82499 0.82467 0.82451 0.82425 0.82389 0.82377 0.82405
3119.203 0.82453 0.82489 0.82497 0.82495 0.82519 0.82585 0.82673 0.82745 0.82777 0.82767
3105.038 0.82733 0.82702 0.82677 0.82628 0.82538 0.82421 0.82282 0.82091 0.81818 0.81486
3090.873 0.81154 0.80848 0.80547 0.80231 0.79925 0.79685 0.79544 0.79508 0.79569 0.79724
3076.707 0.79957 0.80237 0.80519 0.80759 0.80929 0.81015 0.81023 0.80967 0.80875 0.80773
3062.542 0.80664 0.80532 0.80377 0.80225 0.80115 0.80063 0.80054 0.80056 0.80051 0.80036
3048.377 0.80004 0.79944 0.79864 0.79783 0.79707 0.79625 0.79527 0.79418 0.79300 0.79167
3034.211 0.79033 0.78932 0.78891 0.78897 0.78925 0.78963 0.79013 0.79078 0.79163 0.79275
3020.046 0.79410 0.79549 0.79660 0.79712 0.79689 0.79591 0.79427 0.79213 0.78976 0.78750
3005.881 0.78557 0.78412 0.78338 0.78365 0.78504 0.78747 0.79052 0.79355 0.79584 0.79694
2991.715 0.79671 0.79521 0.79280 0.79016 0.78798 0.78656 0.78581 0.78560 0.78589 0.78651
2977.550 0.78708 0.78717 0.78652 0.78520 0.78343 0.78154 0.77985 0.77851 0.77735 0.77613
2963.385 0.77479 0.77347 0.77235 0.77153 0.77101 0.77067 0.77033 0.77001 0.76989 0.77009
2949.219 0.77052 0.77098 0.77137 0.77157 0.77144 0.77083 0.76964 0.76772 0.76491 0.76124
2935.054 0.75696 0.75232 0.74740 0.74221 0.73696 0.73194 0.72746 0.72373 0.72089 0.71895
2920.889 0.71791 0.71789 0.71902 0.72121 0.72413 0.72739 0.73076 0.73412 0.73726 0.74001
2906.723 0.74242 0.74468 0.74692 0.74922 0.75163 0.75408 0.75631 0.75815 0.75967 0.76110
2892.558 0.76263 0.76436 0.76632 0.76838 0.77033 0.77206 0.77361 0.77509 0.77649 0.77758
2878.393 0.77808 0.77783 0.77694 0.77581 0.77488 0.77428 0.77381 0.77330 0.77271 0.77211
2864.227 0.77142 0.77036 0.76863 0.76620 0.76329 0.76015 0.75696 0.75398 0.75154 0.74989
2850.062 0.74922 0.74987 0.75216 0.75582 0.76002 0.76403 0.76764 0.77101 0.77425 0.77733
2835.897 0.78020 0.78285 0.78527 0.78737 0.78912 0.79062 0.79207 0.79346 0.79467 0.79560
2821.732 0.79639 0.79712 0.79778 0.79827 0.79864 0.79901 0.79950 0.80019 0.80112 0.80215
2807.566 0.80310 0.80388 0.80447 0.80482 0.80495 0.80503 0.80529 0.80575 0.80628 0.80670
2793.401 0.80698 0.80720 0.80760 0.80828 0.80912 0.80985 0.81037 0.81078 0.81119 0.81153
2779.236 0.81166 0.81164 0.81165 0.81185 0.81223 0.81267 0.81298 0.81314 0.81324 0.81335
2765.070 0.81347 0.81364 0.81388 0.81418 0.81444 0.81464 0.81482 0.81495 0.81491 0.81467
2750.905 0.81439 0.81427 0.81431 0.81436 0.81442 0.81463 0.81504 0.81536 0.81533 0.81504
2736.740 0.81485 0.81493 0.81509 0.81519 0.81520 0.81520 0.81526 0.81536 0.81545 0.81550
2722.574 0.81557 0.81576 0.81603 0.81618 0.81615 0.81613 0.81628 0.81659 0.81695 0.81723
2708.409 0.81737 0.81744 0.81754 0.81768 0.81784 0.81799 0.81805 0.81794 0.81775 0.81761
2694.244 0.81759 0.81771 0.81796 0.81826 0.81844 0.81847 0.81856 0.81887 0.81929 0.81961
2680.078 0.81969 0.81956 0.81939 0.81938 0.81952 0.81959 0.81948 0.81933 0.81936 0.81957
2665.913 0.81988 0.82020 0.82039 0.82045 0.82048 0.82055 0.82061 0.82059 0.82056 0.82065
2651.748 0.82085 0.82104 0.82112 0.82112 0.82106 0.82086 0.82056 0.82044 0.82074 0.82135
2637.582 0.82188 0.82208 0.82205 0.82202 0.82207 0.82208 0.82204 0.82197 0.82191 0.82194
2623.417 0.82217 0.82253 0.82273 0.82267 0.82258 0.82262 0.82257 0.82219 0.82166 0.82156
2609.252 0.82215 0.82316 0.82398 0.82429 0.82421 0.82407 0.82407 0.82420 0.82440 0.82468
2595.086 0.82507 0.82548 0.82581 0.82604 0.82625 0.82645 0.82653 0.82634 0.82599 0.82581
2580.921 0.82596 0.82620 0.82619 0.82601 0.82603 0.82641 0.82696 0.82728 0.82712 0.82667
2566.756 0.82647 0.82672 0.82718 0.82757 0.82790 0.82828 0.82866 0.82894 0.82895 0.82867
2552.590 0.82831 0.82816 0.82823 0.82837 0.82862 0.82912 0.82985 0.83047 0.83070 0.83061
2538.425 0.83030 0.82975 0.82911 0.82880 0.82900 0.82940 0.82974 0.83006 0.83038 0.83062
2524.260 0.83073 0.83074 0.83069 0.83067 0.83082 0.83114 0.83149 0.83164 0.83160 0.83157
2510.094 0.83171 0.83180 0.83163 0.83131 0.83117 0.83132 0.83160 0.83175 0.83169 0.83156
2495.929 0.83152 0.83160 0.83177 0.83195 0.83200 0.83181 0.83151 0.83142 0.83165 0.83199
2481.764 0.83212 0.83187 0.83146 0.83126 0.83135 0.83155 0.83179 0.83218 0.83270 0.83314
2467.599 0.83335 0.83339 0.83335 0.83321 0.83302 0.83287 0.83277 0.83271 0.83277 0.83306
2453.433 0.83351 0.83385 0.83390 0.83376 0.83369 0.83373 0.83369 0.83349 0.83330 0.83324
2439.268 0.83330 0.83343 0.83359 0.83359 0.83335 0.83302 0.83294 0.83330 0.83398 0.83456
2425.103 0.83473 0.83453 0.83430 0.83433 0.83463 0.83504 0.83531 0.83536 0.83528 0.83528
2410.937 0.83554 0.83601 0.83651 0.83679 0.83677 0.83647 0.83595 0.83526 0.83462 0.83438
2396.772 0.83462 0.83504 0.83525 0.83512 0.83479 0.83454 0.83451 0.83461 0.83474 0.83488
2382.607 0.83494 0.83473 0.83414 0.83339 0.83293 0.83306 0.83362 0.83419 0.83459 0.83505
2368.441 0.83562 0.83598 0.83581 0.83530 0.83485 0.83469 0.83490 0.83542 0.83603 0.83651
2354.276 0.83679 0.83682 0.83638 0.83544 0.83439 0.83381 0.83398 0.83465 0.83529 0.83562
2340.111 0.83554 0.83504 0.83449 0.83439 0.83482 0.83529 0.83539 0.83507 0.83452 0.83387
2325.945 0.83317 0.83264 0.83260 0.83321 0.83406 0.83450 0.83436 0.83402 0.83394 0.83404
2311.780 0.83390 0.83334 0.83268 0.83223 0.83200 0.83197 0.83224 0.83286 0.83359 0.83417
2297.615 0.83455 0.83483 0.83515 0.83551 0.83587 0.83616 0.83630 0.83620 0.83588 0.83571
2283.449 0.83608 0.83689 0.83756 0.83775 0.83765 0.83759 0.83765 0.83774 0.83781 0.83780
2269.284 0.83759 0.83724 0.83706 0.83725 0.83778 0.83843 0.83886 0.83877 0.83817 0.83744
2255.119 0.83717 0.83757 0.83828 0.83865 0.83839 0.83789 0.83785 0.83862 0.83982 0.84065
2240.953 0.84065 0.84017 0.83990 0.84013 0.84061 0.84119 0.84196 0.84282 0.84345 0.84367
2226.788 0.84355 0.84331 0.84327 0.84351 0.84371 0.84351 0.84313 0.84294 0.84285 0.84241
2212.623 0.84149 0.84052 0.84012 0.84053 0.84134 0.84199 0.84241 0.84299 0.84390 0.84473
2198.457 0.84507 0.84509 0.84526 0.84541 0.84483 0.84325 0.84150 0.84054 0.84072 0.84192
2184.292 0.84404 0.84653 0.84817 0.84833 0.84794 0.84835 0.84967 0.85068 0.85024 0.84855
2170.127 0.84695 0.84650 0.84684 0.84700 0.84657 0.84572 0.84480 0.84481 0.84663 0.84928
2155.962 0.85079 0.85091 0.85084 0.85114 0.85120 0.85038 0.84903 0.84816 0.84830 0.84904
2141.796 0.84960 0.84952 0.84884 0.84795 0.84716 0.84649 0.84604 0.84618 0.84689 0.84756
2127.631 0.84757 0.84687 0.84586 0.84499 0.84474 0.84539 0.84663 0.84772 0.84819 0.84811
2113.466 0.84764 0.84680 0.84570 0.84481 0.84447 0.84452 0.84467 0.84480 0.84492 0.84501
2099.300 0.84513 0.84548 0.84614 0.84687 0.84720 0.84677 0.84568 0.84457 0.84421 0.84475
2085.135 0.84564 0.84626 0.84658 0.84685 0.84701 0.84669 0.84589 0.84525 0.84547 0.84642
2070.970 0.84723 0.84736 0.84716 0.84724 0.84766 0.84805 0.84812 0.84805 0.84842 0.84947
2056.804 0.85059 0.85090 0.85017 0.84903 0.84843 0.84905 0.85072 0.85241 0.85301 0.85228
2042.639 0.85077 0.84947 0.84909 0.84957 0.85039 0.85106 0.85133 0.85139 0.85190 0.85316
2028.474 0.85468 0.85584 0.85652 0.85665 0.85594 0.85462 0.85338 0.85265 0.85253 0.85313
2014.308 0.85445 0.85600 0.85692 0.85672 0.85569 0.85447 0.85352 0.85311 0.85347 0.85451
2000.143 0.85555 0.85582 0.85520 0.85442 0.85440 0.85533 0.85635 0.85662 0.85638 0.85622
1985.978 0.85618 0.85590 0.85521 0.85443 0.85436 0.85569 0.85775 0.85870 0.85787 0.85652
1971.812 0.85580 0.85556 0.85531 0.85518 0.85536 0.85573 0.85615 0.85641 0.85613 0.85532
1957.647 0.85453 0.85395 0.85335 0.85296 0.85335 0.85446 0.85552 0.85586 0.85557 0.85546
1943.482 0.85618 0.85719 0.85717 0.85595 0.85460 0.85388 0.85370 0.85366 0.85358 0.85334
1929.316 0.85280 0.85189 0.85061 0.84893 0.84674 0.84408 0.84147 0.83944 0.83824 0.83777
1915.151 0.83787 0.83827 0.83861 0.83880 0.83913 0.83982 0.84076 0.84171 0.84248 0.84298
1900.986 0.84325 0.84346 0.84378 0.84431 0.84510 0.84595 0.84667 0.84741 0.84842 0.84947
1886.820 0.85017 0.85055 0.85085 0.85113 0.85136 0.85159 0.85186 0.85214 0.85238 0.85257
1872.655 0.85272 0.85290 0.85339 0.85428 0.85503 0.85509 0.85464 0.85417 0.85394 0.85392
1858.490 0.85396 0.85395 0.85392 0.85396 0.85414 0.85436 0.85441 0.85404 0.85331 0.85263
1844.325 0.85231 0.85192 0.85085 0.84915 0.84718 0.84513 0.84300 0.84079 0.83868 0.83689
1830.159 0.83538 0.83390 0.83258 0.83184 0.83168 0.83160 0.83135 0.83116 0.83125 0.83148
1815.994 0.83157 0.83145 0.83135 0.83170 0.83260 0.83364 0.83436 0.83469 0.83482 0.83504
1801.829 0.83549 0.83592 0.83591 0.83535 0.83455 0.83403 0.83432 0.83529 0.83586 0.83543
1787.663 0.83453 0.83383 0.83352 0.83338 0.83325 0.83325 0.83353 0.83398 0.83439 0.83493
1773.498 0.83639 0.83920 0.84218 0.84413 0.84526 0.84594 0.84620 0.84648 0.84729 0.84829
1759.333 0.84868 0.84859 0.84847 0.84825 0.84777 0.84741 0.84771 0.84849 0.84877 0.84817
1745.167 0.84708 0.84600 0.84525 0.84486 0.84453 0.84381 0.84283 0.84242 0.84326 0.84433
1731.002 0.84452 0.84426 0.84391 0.84344 0.84305 0.84298 0.84297 0.84262 0.84219 0.84255
1716.837 0.84402 0.84499 0.84424 0.84220 0.83960 0.83690 0.83440 0.83216 0.82991 0.82730
1702.671 0.82446 0.82192 0.82021 0.81932 0.81899 0.81918 0.81933 0.81907 0.81900 0.81969
1688.506 0.82074 0.82163 0.82316 0.82649 0.82974 0.83075 0.83056 0.83037 0.83082 0.83232
1674.341 0.83440 0.83595 0.83701 0.83852 0.84025 0.84097 0.84079 0.84092 0.84216 0.84396
1660.175 0.84508 0.84522 0.84478 0.84436 0.84551 0.84998 0.85396 0.85449 0.85409 0.85505
1646.010 0.85727 0.85862 0.85875 0.85845 0.85794 0.85684 0.85384 0.84558 0.82984 0.81055
1631.845 0.79102 0.77224 0.75697 0.74960 0.75236 0.76469 0.78398 0.80307 0.81587 0.82355
1617.679 0.82998 0.83618 0.83964 0.83950 0.83710 0.83333 0.82835 0.82219 0.81509 0.80692
1603.514 0.79643 0.78165 0.76174 0.73851 0.71584 0.69799 0.68803 0.68686 0.69316 0.70474
1589.349 0.71931 0.73469 0.74917 0.76192 0.77280 0.78183 0.78894 0.79450 0.79984 0.80646
1575.183 0.81280 0.81588 0.81642 0.81664 0.81775 0.81919 0.82007 0.82031 0.81956 0.81731
1561.018 0.81373 0.81053 0.81085 0.81354 0.81641 0.81979 0.82349 0.82706 0.83034 0.83301
1546.853 0.83483 0.83631 0.83809 0.84045 0.84419 0.84935 0.85256 0.85308 0.85304 0.85413
1532.687 0.85647 0.85836 0.85908 0.85948 0.86036 0.86152 0.86222 0.86180 0.85929 0.85253
1518.522 0.83720 0.80816 0.76674 0.72251 0.68327 0.65268 0.63431 0.63397 0.65950 0.69713
1504.357 0.72088 0.73378 0.74415 0.75472 0.76567 0.77657 0.78570 0.79138 0.79456 0.79763
1490.192 0.80250 0.80874 0.81377 0.81664 0.81827 0.81961 0.82107 0.82248 0.82342 0.82377
1476.026 0.82371 0.82356 0.82342 0.82265 0.82048 0.81713 0.81331 0.80970 0.80683 0.80464
1461.861 0.80263 0.80069 0.79939 0.79991 0.80184 0.80289 0.80286 0.80239 0.80112 0.79775
1447.696 0.79084 0.78048 0.76879 0.75857 0.75221 0.75081 0.75436 0.76330 0.77671 0.78919
1433.530 0.79729 0.80296 0.80836 0.81326 0.81633 0.81752 0.81776 0.81755 0.81673 0.81531
1419.365 0.81390 0.81332 0.81353 0.81377 0.81325 0.81099 0.80631 0.79987 0.79375 0.79020
1405.200 0.79040 0.79320 0.79599 0.79686 0.79477 0.78869 0.77780 0.76196 0.74337 0.72642
1391.034 0.71433 0.70875 0.71139 0.72184 0.73540 0.74755 0.75725 0.76471 0.76998 0.77336
1376.869 0.77572 0.77824 0.78179 0.78602 0.78991 0.79302 0.79516 0.79605 0.79577 0.79483
1362.704 0.79371 0.79264 0.79191 0.79186 0.79269 0.79435 0.79661 0.79907 0.80139 0.80345
1348.538 0.80539 0.80749 0.80978 0.81191 0.81358 0.81491 0.81623 0.81755 0.81862 0.81935
1334.373 0.81980 0.81987 0.81941 0.81862 0.81802 0.81801 0.81843 0.81878 0.81857 0.81776
1320.208 0.81683 0.81648 0.81698 0.81803 0.81912 0.81983 0.81993 0.81952 0.81897 0.81867
1306.042 0.81867 0.81863 0.81811 0.81678 0.81445 0.81103 0.80678 0.80245 0.79902 0.79731
1291.877 0.79769 0.79994 0.80325 0.80652 0.80879 0.80952 0.80869 0.80675 0.80444 0.80234
1277.712 0.80063 0.79937 0.79882 0.79940 0.80121 0.80371 0.80591 0.80694 0.80650 0.80493
1263.546 0.80298 0.80142 0.80077 0.80111 0.80217 0.80340 0.80430 0.80458 0.80425 0.80349
1249.381 0.80259 0.80199 0.80216 0.80331 0.80520 0.80743 0.80985 0.81248 0.81523 0.81787
1235.216 0.82023 0.82238 0.82440 0.82632 0.82810 0.82966 0.83092 0.83185 0.83251 0.83291
1221.050 0.83289 0.83221 0.83066 0.82804 0.82406 0.81839 0.81080 0.80137 0.79093 0.78142
1206.885 0.77561 0.77562 0.78132 0.79035 0.79981 0.80783 0.81382 0.81800 0.82083 0.82257
1192.720 0.82316 0.82236 0.82013 0.81685 0.81348 0.81117 0.81071 0.81206 0.81461 0.81755
1178.555 0.82019 0.82201 0.82279 0.82268 0.82205 0.82145 0.82142 0.82229 0.82404 0.82625
1164.389 0.82847 0.83037 0.83185 0.83299 0.83396 0.83487 0.83577 0.83675 0.83787 0.83904
1150.224 0.84008 0.84081 0.84129 0.84170 0.84213 0.84249 0.84266 0.84259 0.84217 0.84127
1136.059 0.83989 0.83830 0.83698 0.83608 0.83524 0.83369 0.83043 0.82434 0.81478 0.80265
1121.893 0.79045 0.78112 0.77666 0.77744 0.78232 0.78924 0.79625 0.80221 0.80678 0.81005
1107.728 0.81221 0.81350 0.81424 0.81470 0.81497 0.81497 0.81458 0.81375 0.81272 0.81186
1093.563 0.81133 0.81110 0.81110 0.81137 0.81188 0.81248 0.81305 0.81359 0.81421 0.81499
1079.397 0.81598 0.81709 0.81817 0.81910 0.81989 0.82060 0.82114 0.82134 0.82115 0.82078
1065.232 0.82042 0.82013 0.81996 0.82015 0.82097 0.82244 0.82424 0.82585 0.82696 0.82777
1051.067 0.82854 0.82927 0.82975 0.83000 0.83027 0.83060 0.83078 0.83049 0.82949 0.82748
1036.901 0.82425 0.81977 0.81427 0.80813 0.80208 0.79725 0.79498 0.79604 0.80005 0.80556
1022.736 0.81064 0.81345 0.81180 0.80272 0.78462 0.76187 0.74505 0.74327 0.75605 0.77484
1008.571 0.79151 0.80347 0.81171 0.81694 0.81824 0.81390 0.80290 0.78594 0.76525 0.74337
994.405 0.72232 0.70339 0.68701 0.67313 0.66247 0.65725 0.66009 0.67187 0.69069 0.71286
980.240 0.73460 0.75323 0.76762 0.77788 0.78478 0.78925 0.79198 0.79341 0.79402 0.79467
966.075 0.79631 0.79939 0.80359 0.80810 0.81217 0.81537 0.81751 0.81858 0.81886 0.81900
951.909 0.81970 0.82140 0.82412 0.82753 0.83128 0.83510 0.83870 0.84176 0.84411 0.84580
937.744 0.84709 0.84821 0.84937 0.85063 0.85194 0.85313 0.85388 0.85370 0.85193 0.84767
923.579 0.83994 0.82802 0.81165 0.79087 0.76610 0.73827 0.70916 0.68142 0.65787 0.64003
909.413 0.62712 0.61712 0.60922 0.60488 0.60656 0.61543 0.63018 0.64789 0.66581 0.68255
895.248 0.69816 0.71304 0.72683 0.73824 0.74632 0.75174 0.75680 0.76373 0.77312 0.78384
881.083 0.79436 0.80374 0.81159 0.81795 0.82333 0.82840 0.83356 0.83863 0.84313 0.84679
866.918 0.84986 0.85282 0.85590 0.85890 0.86163 0.86389 0.86513 0.86395 0.85827 0.84596
852.752 0.82582 0.79903 0.77041 0.74712 0.73359 0.72703 0.71877 0.70026 0.66754 0.62158
838.587 0.56733 0.51318 0.46888 0.44095 0.42943 0.42959 0.43656 0.44804 0.46347 0.48222
824.422 0.50304 0.52448 0.54535 0.56488 0.58259 0.59824 0.61193 0.62387 0.63420 0.64308
810.256 0.65087 0.65800 0.66464 0.67076 0.67642 0.68192 0.68742 0.69264 0.69723 0.70119
796.091 0.70486 0.70850 0.71237 0.71674 0.72165 0.72677 0.73169 0.73631 0.74075 0.74509
781.926 0.74909 0.75239 0.75488 0.75676 0.75830 0.75968 0.76110 0.76294 0.76541 0.76831
767.760 0.77130 0.77422 0.77679 0.77804 0.77640 0.77057 0.76080 0.74978 0.74153 0.73767
753.595 0.73490 0.72708 0.71056 0.68774 0.66620 0.65394 0.65443 0.66527 0.68114 0.69738
739.430 0.71133 0.72211 0.73013 0.73635 0.74140 0.74554 0.74912 0.75268 0.75658 0.76066
725.264 0.76439 0.76735 0.76966 0.77189 0.77452 0.77738 0.77977 0.78095 0.78028 0.77726
711.099 0.77194 0.76506 0.75689 0.74628 0.73181 0.71419 0.69720 0.68594 0.68412 0.69224
696.934 0.70747 0.72533 0.74187 0.75518 0.76522 0.77275 0.77850 0.78293 0.78637 0.78917
682.768 0.79171 0.79407 0.79610 0.79774 0.79924 0.80081 0.80235 0.80351 0.80415 0.80453
668.603 0.80505 0.80550 0.80527 0.80425 0.80249 0.79998 0.79672 0.79274 0.78808 0.78295
654.438 0.77785 0.77334 0.76976 0.76723 0.76588 0.76567 0.76620 0.76680 0.76718 0.76770
640.272 0.76909 0.77188 0.77611 0.78122 0.78632 0.79073 0.79417 0.79663 0.79837 0.79988
626.107 0.80159 0.80358 0.80564 0.80741 0.80862 0.80921 0.80904 0.80769 0.80481 0.80086
611.942 0.79694 0.79403 0.79231 0.79061 0.78654 0.77797 0.76545 0.75312 0.74662 0.74903
597.776 0.75822 0.76900 0.77750 0.78309 0.78712 0.79066 0.79373 0.79600 0.79744 0.79842
583.611 0.79899 0.79852 0.79621 0.79217 0.78742 0.78287 0.77914 0.77688 0.77648 0.77751
569.446 0.77894 0.77979 0.77909 0.77585 0.76960 0.76085 0.75076 0.74102 0.73424 0.73335
555.280 0.73944 0.75034 0.76226 0.77247 0.78031 0.78614 0.79013 0.79216 0.79244 0.79182
541.115 0.79139 0.79183 0.79304 0.79428 0.79492 0.79490 0.79445 0.79373 0.79309 0.79313
526.950 0.79437 0.79664 0.79908 0.80091 0.80197 0.80240 0.80215 0.80102 0.79917 0.79707
512.785 0.79494 0.79273 0.79037 0.78770 0.78432 0.77991 0.77435 0.76824 0.76307 0.76002
498.619 0.75862 0.75737 0.75523 0.75217 0.74886 0.74582 0.74299 0.74018 0.73746 0.73474
484.454 0.73171 0.72866 0.72660 0.72624 0.72736 0.72900 0.72981 0.72851 0.72472 0.71969
470.289 0.71478 0.70916 0.70108 0.69092 0.68118 0.67393 0.66968 0.66841 0.67095 0.67839
456.123 0.68959 0.70176 0.71346 0.72421 0.73352 0.74173 0.74989 0.75835 0.76606 0.77141
441.958 0.77397 0.77553 0.77838 0.78270 0.78657 0.78851 0.78948 0.79134 0.79437 0.79712
427.793 0.79804 0.79709 0.79609 0.79749 0.80191 0.80754 0.81117 0.81075 0.80776 0.80389
413.627 0.79998 0.79710 0.79548 0.79385 0.79174 0.79042 0.79053 0.79112 0.79167 0.79279
399.462 0.79450 0.79510 0.79394 0.79340 0.79480 0.79727 0.79909 0.79890 0.79663 0.79315
385.297 0.78887 0.78368 0.77825 0.77343 0.76943 0.76638 0.76493 0.76660 0.77154
##END= 
