##TITLE=compound 4-adamantanone-OTBS
##JCAMP-DX=5.0
##DATA TYPE=LINK
##BLOCKS=1


$$ === CHEMSPECTRA SPECTRUM ORIG ===
##TITLE=compound 4-adamantanone-OTBS
##JCAMP-DX=5.00
##DATA TYPE=INFRARED SPECTRUM
##DATA CLASS=XYDATA
##$CSCATEGORY=SPECTRUM
##ORIGIN=
##OWNER=
##XUNITS=1/CM
##YUNITS=TRANSMITTANCE
##XFACTOR=1.0
##YFACTOR=1.0
##FIRSTX=399.6813
##LASTX=4000.188
##MAXX=4000.188
##MAXY=105.0164
##MINX=399.6813
##MINY=0.0
##NPOINTS=7469
##XYDATA= (XY..XY)
399.6813, 0.0
400.1635, 95.33563
400.6456, 95.27061
401.1277, 95.27338
401.6098, 95.34457
402.0919, 95.47189
402.5741, 95.63118
403.0562, 95.7904
403.5383, 95.91516
404.0204, 95.97447
404.5026, 95.94653
404.9847, 95.82385
405.4668, 95.61773
405.9489, 95.35921
406.4311, 95.09628
406.9132, 94.88499
407.3953, 94.77651
407.8774, 94.80363
408.3596, 94.97028
408.8417, 95.24803
409.3238, 95.58183
409.8059, 95.90289
410.2881, 96.14654
410.7702, 96.2685
411.2523, 96.25487
411.7344, 96.12198
412.2166, 95.90766
412.6987, 95.6581
413.1808, 95.41505
413.6629, 95.20796
414.1451, 95.05241
414.6272, 94.95278
415.1093, 94.90745
415.5914, 94.91233
416.0736, 94.96227
416.5557, 95.04949
417.0378, 95.16241
417.52, 95.28581
418.0021, 95.40395
418.4842, 95.5052
418.9663, 95.58618
419.4484, 95.65278
419.9306, 95.71758
420.4127, 95.79462
420.8948, 95.89442
421.377, 96.02081
421.8591, 96.17113
422.3412, 96.33866
422.8233, 96.51627
423.3055, 96.69885
423.7876, 96.8841
424.2697, 97.07092
424.7518, 97.25764
425.2339, 97.44069
425.7161, 97.61523
426.1982, 97.77634
426.6803, 97.92078
427.1624, 98.04736
427.6446, 98.15562
428.1267, 98.24332
428.6088, 98.30447
429.0909, 98.32921
429.5731, 98.30631
430.0552, 98.22733
430.5373, 98.09115
431.0194, 97.90613
431.5016, 97.68929
431.9837, 97.46211
432.4658, 97.2449
432.9479, 97.05161
433.4301, 96.88734
433.9122, 96.74885
434.3943, 96.62783
434.8764, 96.51508
435.3586, 96.40349
435.8407, 96.28897
436.3228, 96.16957
436.8049, 96.04352
437.287, 95.90809
437.7692, 95.75968
438.2513, 95.59569
438.7334, 95.41642
439.2155, 95.22663
439.6977, 95.03511
440.1798, 94.85278
440.6619, 94.68977
441.144, 94.55312
441.6262, 94.44501
442.1083, 94.36349
442.5904, 94.30365
443.0725, 94.25978
443.5547, 94.22681
444.0368, 94.20127
444.5189, 94.18124
445.001, 94.16641
445.4832, 94.15759
445.9653, 94.1568
446.4474, 94.16673
446.9295, 94.19006
447.4117, 94.22832
447.8938, 94.28151
448.3759, 94.34827
448.858, 94.42767
449.3401, 94.52107
449.8223, 94.63408
450.3044, 94.77652
450.7865, 94.96016
451.2687, 95.19426
451.7508, 95.48064
452.2329, 95.80994
452.715, 96.16132
453.1971, 96.50568
453.6793, 96.81234
454.1614, 97.05635
454.6435, 97.22403
455.1257, 97.31477
455.6078, 97.33917
456.0899, 97.3143
456.572, 97.25899
457.0542, 97.18997
457.5363, 97.12063
458.0184, 97.06113
458.5005, 97.0194
458.9827, 97.0014
459.4648, 97.01041
459.9469, 97.04529
460.429, 97.09901
460.9112, 97.15806
461.3933, 97.20418
461.8754, 97.21764
462.3575, 97.1819
462.8397, 97.08817
463.3218, 96.93877
463.8039, 96.74762
464.286, 96.53806
464.7682, 96.33766
465.2503, 96.17218
465.7324, 96.05986
466.2145, 96.00748
466.6967, 96.00955
467.1788, 96.04996
467.6609, 96.10629
468.143, 96.15555
468.6252, 96.17943
469.1073, 96.16867
469.5894, 96.12431
470.0715, 96.05627
470.5536, 95.97948
471.0358, 95.90922
471.5179, 95.85655
472.0, 95.82604
472.4821, 95.81526
472.9643, 95.81672
473.4464, 95.8208
473.9285, 95.81887
474.4106, 95.80573
474.8928, 95.78044
475.3749, 95.74606
475.857, 95.70831
476.3391, 95.67359
476.8213, 95.64717
477.3034, 95.6316
477.7855, 95.626
478.2676, 95.62607
478.7498, 95.62535
479.2319, 95.61703
479.714, 95.59622
480.1961, 95.56169
480.6783, 95.51682
481.1604, 95.46897
481.6425, 95.42748
482.1246, 95.40089
482.6068, 95.39447
483.0889, 95.40862
483.571, 95.43933
484.0531, 95.48012
484.5352, 95.52474
485.0174, 95.56963
485.4995, 95.61497
485.9816, 95.66425
486.4637, 95.72255
486.9459, 95.7943
487.428, 95.88173
487.9101, 95.98388
488.3922, 96.09687
488.8744, 96.21462
489.3565, 96.33003
489.8386, 96.43594
490.3207, 96.52614
490.8029, 96.59641
491.285, 96.64542
491.7671, 96.6753
492.2492, 96.69155
492.7314, 96.70171
493.2135, 96.71317
493.6956, 96.7303
494.1777, 96.75278
494.6599, 96.77474
495.142, 96.78666
495.6241, 96.77864
496.1062, 96.74433
496.5884, 96.68407
497.0705, 96.60559
497.5526, 96.52183
498.0347, 96.44695
498.5169, 96.39156
498.999, 96.35948
499.4811, 96.34676
499.9633, 96.3437
500.4454, 96.33869
500.9275, 96.32258
501.4096, 96.29176
501.8917, 96.24948
502.3739, 96.20436
502.856, 96.16756
503.3381, 96.14917
503.8203, 96.15553
504.3024, 96.18785
504.7845, 96.24246
505.2666, 96.31235
505.7487, 96.38919
506.2309, 96.46535
506.713, 96.53537
507.1951, 96.59637
507.6772, 96.64811
508.1594, 96.6921
508.6415, 96.73094
509.1236, 96.76733
509.6057, 96.80389
510.0879, 96.8427
510.57, 96.88554
511.0521, 96.93365
511.5342, 96.9877
512.0164, 97.04726
512.4985, 97.11044
512.9806, 97.17371
513.4627, 97.23222
513.9448, 97.28051
514.427, 97.31384
514.9091, 97.32924
515.3912, 97.32615
515.8734, 97.30645
516.3555, 97.27361
516.8376, 97.23174
517.3197, 97.18466
517.8019, 97.13554
518.284, 97.08725
518.7661, 97.04289
519.2482, 97.00624
519.7303, 96.98161
520.2125, 96.97314
520.6946, 96.98363
521.1767, 97.0136
521.6588, 97.06096
522.141, 97.12145
522.6231, 97.18964
523.1052, 97.26012
523.5873, 97.32838
524.0695, 97.39096
524.5516, 97.44504
525.0337, 97.48827
525.5159, 97.51853
525.998, 97.5348
526.4801, 97.53787
526.9622, 97.53128
527.4443, 97.52112
527.9265, 97.51508
528.4086, 97.52047
528.8907, 97.54212
529.3728, 97.58085
529.855, 97.63323
530.3371, 97.69248
530.8192, 97.75055
531.3013, 97.80021
531.7834, 97.83691
532.2656, 97.8594
532.7477, 97.86983
533.2299, 97.87291
533.712, 97.87503
534.1941, 97.88322
534.6762, 97.90414
535.1583, 97.94296
535.6404, 98.00228
536.1226, 98.08121
536.6047, 98.17506
537.0868, 98.27592
537.569, 98.37444
538.0511, 98.46188
538.5332, 98.5324
539.0153, 98.58421
539.4974, 98.61938
539.9796, 98.64249
540.4617, 98.65852
540.9438, 98.67096
541.426, 98.68103
541.9081, 98.68756
542.3902, 98.68806
542.8723, 98.67956
543.3544, 98.65948
543.8365, 98.62566
544.3187, 98.57659
544.8008, 98.5114
545.283, 98.43047
545.7651, 98.33626
546.2472, 98.23389
546.7293, 98.13097
547.2114, 98.0365
547.6936, 97.95877
548.1757, 97.90338
548.6578, 97.87168
549.14, 97.8606
549.6221, 97.86372
550.1042, 97.87321
550.5863, 97.8818
551.0684, 97.88402
551.5505, 97.87629
552.0327, 97.85645
552.5148, 97.8231
552.9969, 97.77553
553.4791, 97.71408
553.9612, 97.64124
554.4433, 97.56197
554.9254, 97.48356
555.4076, 97.41417
555.8896, 97.36115
556.3718, 97.32911
556.8539, 97.31945
557.3361, 97.33041
557.8182, 97.35847
558.3003, 97.39959
558.7825, 97.45026
559.2645, 97.50748
559.7467, 97.56849
560.2288, 97.63009
560.7109, 97.68885
561.1931, 97.74142
561.6752, 97.78568
562.1573, 97.82122
562.6394, 97.84923
563.1216, 97.87139
563.6037, 97.88876
564.0858, 97.9006
564.5679, 97.90466
565.05, 97.89799
565.5322, 97.87872
566.0143, 97.84696
566.4965, 97.80487
566.9785, 97.75525
567.4607, 97.69965
567.9428, 97.6367
568.4249, 97.56211
568.907, 97.47013
569.3892, 97.35642
569.8713, 97.22076
570.3534, 97.06858
570.8356, 96.91031
571.3177, 96.75906
571.7998, 96.62722
572.2819, 96.5237
572.764, 96.45251
573.2462, 96.41319
573.7283, 96.40248
574.2104, 96.41642
574.6925, 96.45168
575.1747, 96.50611
575.6568, 96.57829
576.1389, 96.66673
576.621, 96.76933
577.1031, 96.88347
577.5853, 97.00628
578.0674, 97.13503
578.5496, 97.26715
579.0317, 97.3998
579.5138, 97.52956
579.9959, 97.6526
580.478, 97.76504
580.9601, 97.86435
581.4423, 97.95009
581.9244, 98.02433
582.4066, 98.09063
582.8887, 98.15247
583.3708, 98.21146
583.8529, 98.26667
584.335, 98.31487
584.8171, 98.35258
585.2993, 98.37821
585.7814, 98.39408
586.2635, 98.40638
586.7457, 98.42397
587.2278, 98.45536
587.7099, 98.50587
588.192, 98.57541
588.6741, 98.65803
589.1563, 98.74331
589.6384, 98.81901
590.1205, 98.87407
590.6027, 98.90134
591.0848, 98.89912
591.5669, 98.87163
592.049, 98.82803
592.5311, 98.78057
593.0133, 98.74202
593.4954, 98.72269
593.9775, 98.72781
594.4597, 98.75587
594.9418, 98.79852
595.4239, 98.84219
595.906, 98.87159
596.3882, 98.87373
596.8702, 98.84135
597.3524, 98.7748
597.8345, 98.68117
598.3167, 98.5716
598.7988, 98.45757
599.2809, 98.34789
599.763, 98.24708
600.2451, 98.15593
600.7273, 98.07329
601.2094, 97.99821
601.6915, 97.93108
602.1736, 97.87357
602.6558, 97.82724
603.1379, 97.7919
603.62, 97.76464
604.1022, 97.74021
604.5842, 97.71279
605.0664, 97.67818
605.5485, 97.6356
606.0306, 97.58831
606.5128, 97.5425
606.9949, 97.5052
607.477, 97.4819
607.9591, 97.47501
608.4413, 97.48325
608.9234, 97.50259
609.4055, 97.52771
609.8876, 97.55389
610.3698, 97.57801
610.8519, 97.59929
611.334, 97.61899
611.8162, 97.63977
612.2983, 97.66489
612.7804, 97.69744
613.2625, 97.73961
613.7446, 97.79235
614.2267, 97.85515
614.7089, 97.92607
615.191, 98.00201
615.6731, 98.07911
616.1553, 98.15316
616.6374, 98.22015
617.1195, 98.27648
617.6016, 98.31953
618.0837, 98.34792
618.5659, 98.36201
619.048, 98.36414
619.5302, 98.35847
620.0123, 98.35036
620.4944, 98.34507
620.9765, 98.34612
621.4586, 98.35418
621.9407, 98.36647
622.4229, 98.37759
622.905, 98.38113
623.3871, 98.372
623.8693, 98.34823
624.3514, 98.31161
624.8335, 98.26686
625.3156, 98.2197
625.7977, 98.17433
626.2798, 98.13174
626.762, 98.08888
627.2441, 98.03943
627.7263, 97.9752
628.2084, 97.88796
628.6905, 97.77054
629.1726, 97.61721
629.6547, 97.42329
630.1368, 97.18474
630.619, 96.8978
631.1011, 96.55959
631.5833, 96.16919
632.0654, 95.72914
632.5475, 95.2468
633.0296, 94.73528
633.5117, 94.21352
633.9939, 93.70555
634.476, 93.2385
634.9581, 92.8401
635.4402, 92.53526
635.9224, 92.34261
636.4045, 92.2716
636.8866, 92.32081
637.3687, 92.47836
637.8508, 92.72434
638.333, 93.03468
638.8151, 93.38504
639.2972, 93.75366
639.7794, 94.12182
640.2615, 94.47215
640.7436, 94.78603
641.2257, 95.04175
641.7079, 95.21539
642.1899, 95.28475
642.6721, 95.23614
643.1542, 95.07117
643.6364, 94.81145
644.1185, 94.4986
644.6006, 94.18874
645.0827, 93.94238
645.5648, 93.81227
646.047, 93.83224
646.5291, 94.01063
647.0112, 94.32963
647.4933, 94.7509
647.9755, 95.22494
648.4576, 95.70161
648.9397, 96.13879
649.4219, 96.50749
649.904, 96.79316
650.3861, 96.99376
650.8682, 97.11595
651.3503, 97.17065
651.8325, 97.16924
652.3146, 97.12094
652.7968, 97.03174
653.2788, 96.90483
653.761, 96.74171
654.2431, 96.54382
654.7252, 96.31347
655.2073, 96.0545
655.6895, 95.7717
656.1716, 95.46999
656.6537, 95.15338
657.1359, 94.82439
657.6179, 94.48394
658.1001, 94.13199
658.5822, 93.76798
659.0643, 93.39154
659.5464, 93.00259
660.0286, 92.60133
660.5107, 92.18855
660.9928, 91.7664
661.475, 91.33949
661.9571, 90.91644
662.4392, 90.51034
662.9213, 90.13805
663.4034, 89.81764
663.8856, 89.56453
664.3677, 89.38744
664.8499, 89.28574
665.332, 89.24876
665.8141, 89.25822
666.2962, 89.29218
666.7783, 89.33043
667.2605, 89.35855
667.7426, 89.37045
668.2247, 89.36825
668.7068, 89.36041
669.189, 89.35875
669.6711, 89.37583
670.1532, 89.42331
670.6353, 89.51122
671.1174, 89.64794
671.5996, 89.84012
672.0817, 90.09179
672.5638, 90.403
673.046, 90.76821
673.5281, 91.1753
674.0102, 91.60551
674.4923, 92.03515
674.9745, 92.43819
675.4565, 92.7898
675.9387, 93.06961
676.4208, 93.26424
676.903, 93.36829
677.3851, 93.38415
677.8672, 93.32001
678.3493, 93.18718
678.8314, 92.99686
679.3136, 92.75746
679.7957, 92.47291
680.2778, 92.14286
680.7599, 91.76389
681.2421, 91.33218
681.7242, 90.8457
682.2063, 90.30613
682.6885, 89.71891
683.1705, 89.09245
683.6527, 88.43636
684.1348, 87.76025
684.6169, 87.07349
685.0991, 86.38651
685.5812, 85.71323
686.0634, 85.07359
686.5454, 84.49473
687.0276, 84.01011
687.5096, 83.65594
687.9918, 83.46565
688.4739, 83.46346
688.9561, 83.6592
689.4382, 84.04519
689.9203, 84.59651
690.4025, 85.27421
690.8845, 86.03024
691.3667, 86.81308
691.8488, 87.57283
692.3309, 88.26476
692.813, 88.85181
693.2952, 89.30556
693.7773, 89.60656
694.2594, 89.74374
694.7416, 89.71342
695.2236, 89.51759
695.7058, 89.16178
696.1879, 88.65227
696.67, 87.99371
697.1522, 87.18734
697.6343, 86.23111
698.1165, 85.12245
698.5985, 83.86386
699.0807, 82.47076
699.5628, 80.97966
700.0449, 79.45432
700.527, 77.98695
701.0092, 76.69211
701.4913, 75.69325
701.9734, 75.10279
702.4556, 75.0017
702.9377, 75.42268
703.4198, 76.34333
703.9019, 77.69036
704.384, 79.35337
704.8662, 81.20412
705.3483, 83.11603
705.8304, 84.97993
706.3125, 86.71429
706.7947, 88.26849
707.2768, 89.62099
707.7589, 90.77319
708.241, 91.74165
708.7231, 92.55033
709.2053, 93.22424
709.6874, 93.78511
710.1696, 94.24948
710.6517, 94.62865
711.1338, 94.93031
711.6159, 95.16055
712.098, 95.32639
712.5802, 95.43682
713.0623, 95.50311
713.5444, 95.53753
714.0265, 95.55151
714.5087, 95.55354
714.9908, 95.54819
715.4729, 95.53584
715.955, 95.51382
716.4371, 95.47802
716.9193, 95.42412
717.4014, 95.34833
717.8835, 95.24733
718.3657, 95.11777
718.8478, 94.95608
719.3299, 94.75876
719.812, 94.52358
720.2942, 94.25087
720.7762, 93.94439
721.2584, 93.61157
721.7405, 93.26261
722.2227, 92.90892
722.7048, 92.56185
723.1869, 92.23164
723.6691, 91.9272
724.1511, 91.6562
724.6333, 91.42504
725.1154, 91.23826
725.5975, 91.09733
726.0797, 90.99964
726.5618, 90.93798
727.0439, 90.90145
727.526, 90.87759
728.0082, 90.85509
728.4902, 90.8261
728.9724, 90.78721
729.4545, 90.73854
729.9366, 90.68184
730.4188, 90.6182
730.9009, 90.54651
731.3831, 90.46346
731.8651, 90.36493
732.3473, 90.24788
732.8293, 90.11168
733.3115, 89.95866
733.7936, 89.79288
734.2758, 89.61852
734.7579, 89.43808
735.24, 89.25155
735.7222, 89.05663
736.2042, 88.84979
736.6864, 88.62747
737.1685, 88.38709
737.6506, 88.12738
738.1328, 87.84852
738.6149, 87.55206
739.097, 87.24118
739.5791, 86.92112
740.0613, 86.59928
740.5434, 86.28477
741.0255, 85.98718
741.5076, 85.71475
741.9897, 85.47279
742.4719, 85.26291
742.954, 85.08369
743.4362, 84.93232
743.9182, 84.80686
744.4004, 84.70799
744.8825, 84.63952
745.3646, 84.6076
745.8467, 84.61917
746.3289, 84.67995
746.811, 84.79333
747.2931, 84.96002
747.7753, 85.17834
748.2574, 85.44482
748.7395, 85.7547
749.2216, 86.10176
749.7037, 86.47824
750.1859, 86.87481
750.668, 87.2812
751.1501, 87.68698
751.6322, 88.08274
752.1144, 88.46053
752.5965, 88.81358
753.0786, 89.13546
753.5608, 89.41903
754.0428, 89.65603
754.525, 89.83791
755.0071, 89.95758
755.4893, 90.01157
755.9714, 90.00161
756.4535, 89.93488
756.9356, 89.82228
757.4177, 89.67594
757.8999, 89.50594
758.382, 89.31821
758.8641, 89.11357
759.3463, 88.88851
759.8284, 88.63676
760.3105, 88.35121
760.7926, 88.02514
761.2748, 87.65306
761.7568, 87.23048
762.239, 86.75364
762.7211, 86.21887
763.2032, 85.62217
763.6854, 84.95866
764.1675, 84.2221
764.6496, 83.40459
765.1317, 82.49706
765.6139, 81.49039
766.0959, 80.37792
766.5781, 79.15848
767.0602, 77.83913
767.5424, 76.43625
768.0245, 74.97486
768.5066, 73.48482
768.9888, 71.99589
769.4708, 70.53172
769.953, 69.10532
770.4351, 67.71654
770.9172, 66.35259
771.3994, 64.99123
771.8815, 63.60563
772.3636, 62.16995
772.8457, 60.66462
773.3279, 59.08048
773.8099, 57.42196
774.2921, 55.70864
774.7742, 53.97544
775.2563, 52.2708
775.7385, 50.65284
776.2206, 49.1836
776.7028, 47.92222
777.1848, 46.91792
777.667, 46.20488
778.1491, 45.79914
778.6312, 45.69855
779.1133, 45.88494
779.5955, 46.32787
780.0776, 46.98875
780.5597, 47.82484
781.0419, 48.79258
781.5239, 49.85033
782.0061, 50.96001
782.4882, 52.08823
782.9703, 53.20629
783.4525, 54.28947
783.9346, 55.31588
784.4167, 56.26538
784.8988, 57.11894
785.381, 57.85905
785.8631, 58.47081
786.3452, 58.94382
786.8273, 59.27394
787.3094, 59.46466
787.7916, 59.52779
788.2737, 59.48354
788.7559, 59.35978
789.238, 59.19121
789.7201, 59.01749
790.2022, 58.88128
790.6843, 58.825
791.1665, 58.88737
791.6486, 59.09929
792.1307, 59.48052
792.6128, 60.03751
793.095, 60.76291
793.5771, 61.63699
794.0592, 62.63048
794.5413, 63.70789
795.0234, 64.83093
795.5056, 65.96136
795.9877, 67.06313
796.4698, 68.10394
796.952, 69.05636
797.4341, 69.89828
797.9162, 70.61311
798.3983, 71.1892
798.8805, 71.61879
799.3625, 71.89734
799.8447, 72.02324
800.3268, 71.9987
800.809, 71.83177
801.2911, 71.53902
801.7732, 71.14777
802.2553, 70.69669
802.7374, 70.23428
803.2196, 69.81454
803.7017, 69.49129
804.1838, 69.31175
804.666, 69.31139
805.1481, 69.51086
805.6302, 69.91552
806.1123, 70.51694
806.5945, 71.29575
807.0765, 72.22463
807.5587, 73.27113
808.0408, 74.39974
808.5229, 75.57397
809.0051, 76.75785
809.4872, 77.91763
809.9694, 79.02282
810.4514, 80.04706
810.9336, 80.96808
811.4156, 81.76786
811.8978, 82.43227
812.3799, 82.9517
812.8621, 83.32166
813.3442, 83.54372
813.8263, 83.62583
814.3085, 83.58171
814.7905, 83.42917
815.2727, 83.18774
815.7548, 82.87627
816.2369, 82.51137
816.7191, 82.1067
817.2012, 81.67356
817.6833, 81.22144
818.1654, 80.75819
818.6476, 80.28944
819.1296, 79.81705
819.6118, 79.33746
820.0939, 78.84085
820.576, 78.31126
821.0582, 77.72829
821.5403, 77.06922
822.0225, 76.31153
822.5045, 75.43423
822.9867, 74.41862
823.4688, 73.24828
823.9509, 71.90878
824.433, 70.3884
824.9152, 68.67909
825.3973, 66.77789
825.8794, 64.68849
826.3616, 62.42167
826.8437, 59.99549
827.3258, 57.43456
827.8079, 54.76957
828.29, 52.03758
828.7722, 49.28267
829.2543, 46.55679
829.7365, 43.91953
830.2185, 41.43573
830.7007, 39.17073
831.1828, 37.18282
831.6649, 35.5151
832.147, 34.1883
832.6292, 33.19709
833.1113, 32.51145
833.5934, 32.08323
834.0756, 31.85616
834.5577, 31.77727
835.0398, 31.80608
835.5219, 31.92067
836.004, 32.11874
836.4862, 32.41458
836.9683, 32.83278
837.4504, 33.40082
837.9325, 34.14186
838.4147, 35.07015
838.8968, 36.18905
839.3789, 37.49223
839.861, 38.96647
840.3431, 40.59509
840.8253, 42.36044
841.3074, 44.24511
841.7896, 46.23183
842.2717, 48.30255
842.7538, 50.43771
843.2359, 52.61628
843.718, 54.81666
844.2002, 57.01819
844.6823, 59.20253
845.1644, 61.35419
845.6465, 63.46025
846.1287, 65.50922
846.6108, 67.48956
847.0929, 69.38913
847.5751, 71.19537
848.0571, 72.89671
848.5393, 74.4845
849.0214, 75.95459
849.5035, 77.30801
849.9857, 78.55019
850.4678, 79.68915
850.9499, 80.73326
851.432, 81.68951
851.9142, 82.56295
852.3962, 83.35712
852.8784, 84.07538
853.3605, 84.72244
853.8427, 85.30508
854.3248, 85.83208
854.8069, 86.31337
855.2891, 86.75855
855.7711, 87.17563
856.2533, 87.56988
856.7354, 87.94359
857.2175, 88.29628
857.6996, 88.62541
858.1818, 88.9276
858.6639, 89.19992
859.146, 89.44135
859.6282, 89.65355
860.1102, 89.84104
860.5924, 90.0103
861.0745, 90.16811
861.5566, 90.31937
862.0388, 90.46542
862.5209, 90.6035
863.0031, 90.72758
863.4851, 90.83051
863.9673, 90.90659
864.4494, 90.95357
864.9315, 90.97316
865.4136, 90.96985
865.8958, 90.94864
866.3779, 90.91244
866.86, 90.86045
867.3422, 90.78818
867.8242, 90.68895
868.3064, 90.55613
868.7885, 90.3854
869.2706, 90.17574
869.7527, 89.92908
870.2349, 89.6489
870.717, 89.33846
871.1991, 88.99969
871.6813, 88.63284
872.1634, 88.23737
872.6455, 87.81276
873.1276, 87.35937
873.6097, 86.8782
874.0919, 86.37005
874.574, 85.83426
875.0562, 85.26768
875.5382, 84.66462
876.0204, 84.01733
876.5025, 83.31752
876.9846, 82.55794
877.4668, 81.73369
877.9489, 80.84347
878.431, 79.89008
878.9131, 78.88132
879.3953, 77.83035
879.8774, 76.75668
880.3595, 75.68614
880.8416, 74.65049
881.3237, 73.68526
881.8059, 72.82642
882.288, 72.10573
882.7701, 71.54586
883.2523, 71.15639
883.7344, 70.93153
884.2165, 70.85028
884.6986, 70.87947
885.1808, 70.97864
885.6628, 71.10597
886.145, 71.22414
886.6271, 71.30466
887.1093, 71.33003
887.5914, 71.29382
888.0735, 71.19878
888.5556, 71.05398
889.0377, 70.87178
889.5199, 70.66518
890.002, 70.4458
890.4841, 70.2223
890.9662, 69.99878
891.4484, 69.77301
891.9305, 69.53452
892.4126, 69.26331
892.8948, 68.92967
893.3768, 68.49632
893.859, 67.92233
894.3411, 67.16959
894.8232, 66.20984
895.3054, 65.03185
895.7875, 63.64688
896.2697, 62.09217
896.7517, 60.43109
897.2339, 58.75099
897.7159, 57.1577
898.1981, 55.76794
898.6802, 54.69939
899.1624, 54.05924
899.6445, 53.93249
900.1266, 54.37159
900.6088, 55.3894
901.0908, 56.95695
901.573, 59.00599
902.0551, 61.43631
902.5372, 64.12622
903.0193, 66.94508
903.5015, 69.76599
903.9836, 72.47748
904.4657, 74.99229
904.9479, 77.25261
905.4299, 79.23095
905.9121, 80.92709
906.3942, 82.36256
906.8763, 83.57328
907.3585, 84.60228
907.8406, 85.49296
908.3228, 86.2838
908.8048, 87.00482
909.287, 87.67598
909.7691, 88.30763
910.2512, 88.90225
910.7333, 89.4575
911.2155, 89.96913
911.6976, 90.43369
912.1797, 90.85001
912.6619, 91.21979
913.144, 91.54678
913.6261, 91.83551
914.1082, 92.08988
914.5903, 92.31203
915.0724, 92.50175
915.5546, 92.65691
916.0367, 92.77415
916.5189, 92.8502
917.001, 92.88316
917.4831, 92.87343
917.9652, 92.82433
918.4473, 92.74187
918.9294, 92.63389
919.4116, 92.50871
919.8937, 92.37315
920.3759, 92.23103
920.858, 92.08176
921.3401, 91.92013
921.8222, 91.73659
922.3043, 91.51887
922.7864, 91.25362
923.2686, 90.92836
923.7507, 90.53251
924.2328, 90.05795
924.715, 89.49823
925.1971, 88.84736
925.6792, 88.09817
926.1613, 87.24129
926.6434, 86.26453
927.1255, 85.1537
927.6077, 83.89403
928.0898, 82.47235
928.572, 80.87959
929.0541, 79.11297
929.5362, 77.17749
930.0183, 75.08689
930.5004, 72.86338
930.9826, 70.53692
931.4647, 68.14378
931.9468, 65.72515
932.429, 63.32558
932.9111, 60.99186
933.3932, 58.77178
933.8753, 56.71275
934.3574, 54.86003
934.8396, 53.25422
935.3217, 51.92839
935.8038, 50.90541
936.2859, 50.19585
936.7681, 49.79721
937.2502, 49.69452
937.7323, 49.86225
938.2144, 50.26721
938.6966, 50.87196
939.1787, 51.6382
939.6608, 52.53008
940.1429, 53.51681
940.6251, 54.57488
941.1072, 55.68935
941.5893, 56.85479
942.0714, 58.07502
942.5536, 59.36217
943.0357, 60.73443
943.5178, 62.21273
943.9999, 63.81618
944.4821, 65.55711
944.9642, 67.43631
945.4463, 69.43977
945.9284, 71.53764
946.4106, 73.68625
946.8927, 75.83273
947.3748, 77.92164
947.8569, 79.90175
948.3391, 81.73192
948.8212, 83.38443
949.3033, 84.84585
949.7855, 86.11517
950.2676, 87.20093
950.7497, 88.11727
951.2318, 88.88085
951.7139, 89.50826
952.196, 90.01436
952.6782, 90.41129
953.1603, 90.70749
953.6425, 90.90701
954.1246, 91.00908
954.6067, 91.00788
955.0888, 90.89304
955.5709, 90.65126
956.053, 90.26913
956.5352, 89.73657
957.0173, 89.05156
957.4995, 88.22417
957.9816, 87.27987
958.4637, 86.26051
958.9458, 85.22242
959.4279, 84.23148
959.91, 83.35535
960.3922, 82.65487
960.8743, 82.17535
961.3564, 81.94072
961.8386, 81.95107
962.3207, 82.18458
962.8028, 82.60323
963.2849, 83.16039
963.767, 83.80878
964.2491, 84.50629
964.7313, 85.21951
965.2134, 85.92416
965.6956, 86.60406
966.1777, 87.24939
966.6598, 87.85524
967.1419, 88.42075
967.624, 88.94863
968.1061, 89.44449
968.5883, 89.91551
969.0704, 90.36864
969.5526, 90.80872
970.0347, 91.23713
970.5168, 91.65144
970.9989, 92.04629
971.481, 92.41495
971.9631, 92.75082
972.4453, 93.049
972.9274, 93.30649
973.4095, 93.52236
973.8917, 93.69704
974.3738, 93.8319
974.8559, 93.92877
975.338, 93.98959
975.8201, 94.01621
976.3023, 94.0099
976.7844, 93.97096
977.2665, 93.89854
977.7487, 93.79019
978.2308, 93.64208
978.7129, 93.44883
979.195, 93.20332
979.6771, 92.89635
980.1593, 92.51657
980.6414, 92.05058
981.1235, 91.48465
981.6057, 90.80722
982.0878, 90.0121
982.5699, 89.10183
983.052, 88.08944
983.5342, 86.99827
984.0163, 85.86027
984.4984, 84.71249
984.9805, 83.59371
985.4626, 82.54152
985.9448, 81.59128
986.4269, 80.77552
986.909, 80.12427
987.3912, 79.66449
987.8733, 79.41831
988.3554, 79.40036
988.8375, 79.61482
989.3196, 80.05364
989.8018, 80.6965
990.2839, 81.51279
990.766, 82.46478
991.2482, 83.51118
991.7303, 84.60973
992.2124, 85.71889
992.6945, 86.79933
993.1766, 87.81499
993.6588, 88.7347
994.1409, 89.53339
994.623, 90.19182
995.1052, 90.69396
995.5873, 91.02268
996.0694, 91.15514
996.5515, 91.06147
997.0336, 90.70861
997.5157, 90.07111
997.9979, 89.14557
998.48, 87.96492
998.9622, 86.60571
999.4443, 85.18381
999.9264, 83.83683
1000.409, 82.69695
1000.891, 81.86097
1001.373, 81.3672
1001.855, 81.18629
1002.337, 81.22966
1002.819, 81.37241
1003.301, 81.48391
1003.783, 81.45657
1004.266, 81.22541
1004.748, 80.77412
1005.23, 80.12839
1005.712, 79.34171
1006.194, 78.47897
1006.676, 77.60359
1007.158, 76.77082
1007.64, 76.02589
1008.122, 75.40549
1008.605, 74.93902
1009.087, 74.64893
1009.569, 74.54948
1010.051, 74.64603
1010.533, 74.93557
1011.015, 75.4093
1011.497, 76.05621
1011.979, 76.86609
1012.462, 77.83035
1012.944, 78.93983
1013.426, 80.18081
1013.908, 81.53073
1014.39, 82.95599
1014.872, 84.41315
1015.354, 85.8534
1015.836, 87.22943
1016.319, 88.502
1016.801, 89.64505
1017.283, 90.64732
1017.765, 91.51103
1018.247, 92.24789
1018.729, 92.87474
1019.211, 93.40905
1019.693, 93.86629
1020.176, 94.25835
1020.658, 94.59331
1021.14, 94.87611
1021.622, 95.10938
1022.104, 95.29452
1022.586, 95.43301
1023.068, 95.5272
1023.55, 95.58125
1024.033, 95.60094
1024.515, 95.59323
1024.997, 95.56505
1025.479, 95.52189
1025.961, 95.46638
1026.443, 95.39796
1026.925, 95.31236
1027.407, 95.20319
1027.89, 95.06311
1028.372, 94.88598
1028.854, 94.66881
1029.336, 94.41363
1029.818, 94.12849
1030.3, 93.82816
1030.782, 93.53304
1031.264, 93.26748
1031.747, 93.05654
1032.229, 92.92242
1032.711, 92.88032
1033.193, 92.93591
1033.675, 93.08395
1034.157, 93.30904
1034.639, 93.58852
1035.121, 93.89642
1035.604, 94.20779
1036.086, 94.50263
1036.568, 94.7682
1037.05, 94.99992
1037.532, 95.20009
1038.014, 95.37565
1038.496, 95.53503
1038.979, 95.68526
1039.461, 95.82977
1039.943, 95.96758
1040.425, 96.0937
1040.907, 96.20087
1041.389, 96.28188
1041.871, 96.33212
1042.353, 96.3512
1042.835, 96.34392
1043.318, 96.31938
1043.8, 96.28934
1044.282, 96.26561
1044.764, 96.25729
1045.246, 96.26886
1045.728, 96.29925
1046.21, 96.34213
1046.692, 96.38785
1047.175, 96.42562
1047.657, 96.44627
1048.139, 96.44413
1048.621, 96.41797
1049.103, 96.37047
1049.585, 96.30666
1050.067, 96.23172
1050.549, 96.14903
1051.031, 96.05915
1051.514, 95.95988
1051.996, 95.84763
1052.478, 95.71941
1052.96, 95.57458
1053.442, 95.41587
1053.924, 95.24897
1054.406, 95.08095
1054.889, 94.9178
1055.371, 94.76179
1055.853, 94.60944
1056.335, 94.45074
1056.817, 94.26949
1057.299, 94.04536
1057.781, 93.75716
1058.263, 93.38704
1058.746, 92.92525
1059.228, 92.37451
1059.71, 91.75298
1060.192, 91.0948
1060.674, 90.44702
1061.156, 89.86317
1061.638, 89.39404
1062.12, 89.07765
1062.603, 88.93074
1063.085, 88.94417
1063.567, 89.08318
1064.049, 89.29324
1064.531, 89.50919
1065.013, 89.66624
1065.495, 89.70933
1065.977, 89.59967
1066.46, 89.31686
1066.942, 88.85794
1067.424, 88.23364
1067.906, 87.46467
1068.388, 86.57822
1068.87, 85.60569
1069.352, 84.58076
1069.834, 83.53782
1070.317, 82.5097
1070.799, 81.52513
1071.281, 80.60618
1071.763, 79.76639
1072.245, 79.00967
1072.727, 78.33027
1073.209, 77.71294
1073.691, 77.13338
1074.174, 76.55846
1074.656, 75.94694
1075.138, 75.25136
1075.62, 74.42188
1076.102, 73.41286
1076.584, 72.19128
1077.066, 70.74603
1077.548, 69.09599
1078.031, 67.29439
1078.513, 65.42883
1078.995, 63.61506
1079.477, 61.98593
1079.959, 60.67606
1080.441, 59.80491
1080.923, 59.46025
1081.406, 59.68537
1081.888, 60.47154
1082.37, 61.75786
1082.852, 63.43747
1083.334, 65.37012
1083.816, 67.39815
1084.298, 69.36374
1084.78, 71.12469
1085.262, 72.56664
1085.745, 73.60961
1086.227, 74.20946
1086.709, 74.35387
1087.191, 74.05543
1087.673, 73.34328
1088.155, 72.25583
1088.637, 70.83517
1089.119, 69.12489
1089.602, 67.16996
1090.084, 65.01924
1090.566, 62.72829
1091.048, 60.3618
1091.53, 57.99361
1092.012, 55.70395
1092.494, 53.57333
1092.976, 51.6749
1093.458, 50.06708
1093.941, 48.78891
1094.423, 47.86004
1094.905, 47.28504
1095.387, 47.06096
1095.869, 47.18521
1096.351, 47.66082
1096.833, 48.497
1097.316, 49.70447
1097.798, 51.28706
1098.28, 53.23213
1098.762, 55.50333
1099.244, 58.03806
1099.726, 60.7509
1100.208, 63.54234
1100.69, 66.31082
1101.173, 68.9649
1101.655, 71.43298
1102.137, 73.66838
1102.619, 75.64967
1103.101, 77.3773
1103.583, 78.86811
1104.065, 80.14951
1104.547, 81.25465
1105.03, 82.21848
1105.512, 83.07461
1105.994, 83.85248
1106.476, 84.57507
1106.958, 85.25714
1107.44, 85.90498
1107.922, 86.51757
1108.404, 87.08949
1108.886, 87.61428
1109.369, 88.08807
1109.851, 88.51156
1110.333, 88.89064
1110.815, 89.23515
1111.297, 89.55678
1111.779, 89.86646
1112.261, 90.173
1112.744, 90.48199
1113.226, 90.79609
1113.708, 91.11564
1114.19, 91.43944
1114.672, 91.76529
1115.154, 92.09021
1115.636, 92.41051
1116.118, 92.72195
1116.601, 93.02021
1117.083, 93.3013
1117.565, 93.56219
1118.047, 93.80118
1118.529, 94.01805
1119.011, 94.21374
1119.493, 94.38986
1119.975, 94.54824
1120.458, 94.69053
1120.94, 94.81822
1121.422, 94.93273
1121.904, 95.03571
1122.386, 95.1293
1122.868, 95.21629
1123.35, 95.2999
1123.832, 95.38332
1124.314, 95.46902
1124.797, 95.55804
1125.279, 95.64926
1125.761, 95.73957
1126.243, 95.82417
1126.725, 95.89767
1127.207, 95.95527
1127.689, 95.99428
1128.172, 96.01452
1128.654, 96.01869
1129.136, 96.01157
1129.618, 95.99855
1130.1, 95.98451
1130.582, 95.97269
1131.064, 95.96429
1131.546, 95.95886
1132.029, 95.95506
1132.511, 95.95142
1132.993, 95.94698
1133.475, 95.94141
1133.957, 95.93468
1134.439, 95.92675
1134.921, 95.91702
1135.403, 95.90449
1135.885, 95.88792
1136.368, 95.86644
1136.85, 95.83969
1137.332, 95.80819
1137.814, 95.773
1138.296, 95.73526
1138.778, 95.69582
1139.26, 95.65485
1139.742, 95.61163
1140.225, 95.56456
1140.707, 95.5113
1141.189, 95.44907
1141.671, 95.37463
1142.153, 95.28458
1142.635, 95.17574
1143.117, 95.04539
1143.599, 94.89176
1144.082, 94.71416
1144.564, 94.51301
1145.046, 94.28944
1145.528, 94.04478
1146.01, 93.77989
1146.492, 93.49477
1146.974, 93.18835
1147.457, 92.85867
1147.939, 92.50323
1148.421, 92.11928
1148.903, 91.70404
1149.385, 91.25475
1149.867, 90.76876
1150.349, 90.24364
1150.831, 89.67805
1151.313, 89.07259
1151.796, 88.43114
1152.278, 87.76198
1152.76, 87.07848
1153.242, 86.39899
1153.724, 85.74592
1154.206, 85.14419
1154.688, 84.61947
1155.17, 84.19602
1155.653, 83.89488
1156.135, 83.73225
1156.617, 83.7179
1157.099, 83.854
1157.581, 84.13431
1158.063, 84.54379
1158.545, 85.05947
1159.027, 85.65218
1159.51, 86.28972
1159.992, 86.94019
1160.474, 87.57574
1160.956, 88.175
1161.438, 88.72415
1161.92, 89.21593
1162.402, 89.64769
1162.885, 90.01826
1163.367, 90.3257
1163.849, 90.56556
1164.331, 90.73044
1164.813, 90.81084
1165.295, 90.7963
1165.777, 90.67671
1166.259, 90.44314
1166.741, 90.08813
1167.224, 89.60555
1167.706, 88.99055
1168.188, 88.23956
1168.67, 87.35096
1169.152, 86.32613
1169.634, 85.17072
1170.116, 83.89629
1170.598, 82.52136
1171.081, 81.07235
1171.563, 79.58365
1172.045, 78.09677
1172.527, 76.65864
1173.009, 75.31876
1173.491, 74.12576
1173.973, 73.12349
1174.455, 72.34735
1174.938, 71.82184
1175.42, 71.55878
1175.902, 71.55746
1176.384, 71.80595
1176.866, 72.28315
1177.348, 72.96158
1177.83, 73.80972
1178.313, 74.79404
1178.795, 75.87993
1179.277, 77.03242
1179.759, 78.21638
1180.241, 79.39739
1180.723, 80.54305
1181.205, 81.62501
1181.687, 82.62132
1182.169, 83.51781
1182.652, 84.30882
1183.134, 84.99596
1183.616, 85.58625
1184.098, 86.08938
1184.58, 86.51537
1185.062, 86.87266
1185.544, 87.16718
1186.026, 87.40225
1186.509, 87.57894
1186.991, 87.69688
1187.473, 87.75504
1187.955, 87.75219
1188.437, 87.68732
1188.919, 87.55973
1189.401, 87.36887
1189.883, 87.11417
1190.366, 86.79475
1190.848, 86.40915
1191.33, 85.95501
1191.812, 85.429
1192.294, 84.82677
1192.776, 84.1431
1193.258, 83.3721
1193.74, 82.50791
1194.223, 81.54503
1194.705, 80.4793
1195.187, 79.30888
1195.669, 78.03516
1196.151, 76.66418
1196.633, 75.20739
1197.115, 73.68236
1197.597, 72.11288
1198.08, 70.52834
1198.562, 68.96283
1199.044, 67.45345
1199.526, 66.0387
1200.008, 64.75652
1200.49, 63.6423
1200.972, 62.72721
1201.454, 62.0365
1201.937, 61.58846
1202.419, 61.39388
1202.901, 61.45588
1203.383, 61.77013
1203.865, 62.32508
1204.347, 63.10242
1204.829, 64.07739
1205.312, 65.21934
1205.794, 66.49223
1206.276, 67.85587
1206.758, 69.2667
1207.24, 70.67931
1207.722, 72.04817
1208.204, 73.32973
1208.686, 74.48568
1209.168, 75.48628
1209.651, 76.31409
1210.133, 76.96654
1210.615, 77.45706
1211.097, 77.81368
1211.579, 78.07565
1212.061, 78.28811
1212.543, 78.49638
1213.025, 78.74055
1213.508, 79.05202
1213.99, 79.45128
1214.472, 79.94812
1214.954, 80.54277
1215.436, 81.22762
1215.918, 81.98874
1216.4, 82.80738
1216.882, 83.6611
1217.365, 84.52528
1217.847, 85.37483
1218.329, 86.18631
1218.811, 86.94011
1219.293, 87.62206
1219.775, 88.22411
1220.257, 88.74411
1220.74, 89.18459
1221.222, 89.55108
1221.704, 89.85059
1222.186, 90.09047
1222.668, 90.27778
1223.15, 90.41944
1223.632, 90.52199
1224.114, 90.59149
1224.596, 90.63306
1225.079, 90.65012
1225.561, 90.64389
1226.043, 90.61327
1226.525, 90.5554
1227.007, 90.46674
1227.489, 90.34424
1227.971, 90.18636
1228.453, 89.99325
1228.936, 89.76638
1229.418, 89.50748
1229.9, 89.21741
1230.382, 88.89515
1230.864, 88.53765
1231.346, 88.14007
1231.828, 87.69628
1232.31, 87.19969
1232.792, 86.6433
1233.275, 86.01969
1233.757, 85.32088
1234.239, 84.53816
1234.721, 83.66249
1235.203, 82.68571
1235.685, 81.60209
1236.167, 80.41015
1236.65, 79.11376
1237.132, 77.72272
1237.614, 76.25223
1238.096, 74.72131
1238.578, 73.15117
1239.06, 71.56306
1239.542, 69.97692
1240.024, 68.41036
1240.507, 66.87825
1240.989, 65.393
1241.471, 63.9648
1241.953, 62.60226
1242.435, 61.31249
1242.917, 60.10142
1243.399, 58.97362
1243.881, 57.93242
1244.364, 56.97968
1244.846, 56.11617
1245.328, 55.34157
1245.81, 54.65449
1246.292, 54.05263
1246.774, 53.53252
1247.256, 53.08967
1247.738, 52.71903
1248.22, 52.41597
1248.703, 52.17745
1249.185, 52.00333
1249.667, 51.89703
1250.149, 51.8653
1250.631, 51.91673
1251.113, 52.05935
1251.595, 52.29762
1252.078, 52.62992
1252.56, 53.04659
1253.042, 53.5298
1253.524, 54.05482
1254.006, 54.59281
1254.488, 55.11478
1254.97, 55.59587
1255.452, 56.01926
1255.935, 56.37878
1256.417, 56.67979
1256.899, 56.93764
1257.381, 57.17432
1257.863, 57.41361
1258.345, 57.67601
1258.827, 57.97464
1259.309, 58.31274
1259.792, 58.68364
1260.274, 59.07252
1260.756, 59.45985
1261.238, 59.82513
1261.72, 60.15058
1262.202, 60.42386
1262.684, 60.63994
1263.166, 60.80184
1263.648, 60.92093
1264.131, 61.01607
1264.613, 61.11204
1265.095, 61.23695
1265.577, 61.41856
1266.059, 61.68044
1266.541, 62.03833
1267.023, 62.49804
1267.505, 63.05525
1267.988, 63.69736
1268.47, 64.40693
1268.952, 65.16506
1269.434, 65.95432
1269.916, 66.75943
1270.398, 67.56682
1270.88, 68.36247
1271.363, 69.13018
1271.845, 69.85035
1272.327, 70.50043
1272.809, 71.05655
1273.291, 71.4963
1273.773, 71.80076
1274.255, 71.95605
1274.737, 71.95336
1275.219, 71.78783
1275.702, 71.45666
1276.184, 70.95757
1276.666, 70.28779
1277.148, 69.44411
1277.63, 68.42426
1278.112, 67.22861
1278.594, 65.86243
1279.076, 64.3379
1279.559, 62.67569
1280.041, 60.90588
1280.523, 59.06798
1281.005, 57.20996
1281.487, 55.38641
1281.969, 53.65578
1282.451, 52.07673
1282.933, 50.70495
1283.416, 49.58975
1283.898, 48.77161
1284.38, 48.28022
1284.862, 48.13293
1285.344, 48.33335
1285.826, 48.87048
1286.308, 49.71832
1286.791, 50.83724
1287.273, 52.17661
1287.755, 53.67969
1288.237, 55.28937
1288.719, 56.95443
1289.201, 58.63447
1289.683, 60.30299
1290.165, 61.94751
1290.647, 63.56713
1291.13, 65.16785
1291.612, 66.75684
1292.094, 68.33697
1292.576, 69.90266
1293.058, 71.43776
1293.54, 72.91593
1294.022, 74.30307
1294.504, 75.56121
1294.987, 76.65294
1295.469, 77.54545
1295.951, 78.21351
1296.433, 78.64151
1296.915, 78.82413
1297.397, 78.76616
1297.879, 78.4815
1298.361, 77.99117
1298.844, 77.3205
1299.326, 76.49571
1299.808, 75.5406
1300.29, 74.47375
1300.772, 73.3078
1301.254, 72.05103
1301.736, 70.7118
1302.219, 69.3045
1302.701, 67.85618
1303.183, 66.4113
1303.665, 65.03304
1304.147, 63.79995
1304.629, 62.79822
1305.111, 62.11091
1305.593, 61.80648
1306.075, 61.92895
1306.558, 62.49194
1307.04, 63.47709
1307.522, 64.83707
1308.004, 66.50214
1308.486, 68.3888
1308.968, 70.40905
1309.45, 72.47866
1309.932, 74.52382
1310.415, 76.48487
1310.897, 78.31812
1311.379, 79.99484
1311.861, 81.49958
1312.343, 82.82734
1312.825, 83.98107
1313.307, 84.96954
1313.789, 85.80598
1314.272, 86.50706
1314.754, 87.09232
1315.236, 87.58348
1315.718, 88.00329
1316.2, 88.37402
1316.682, 88.71577
1317.164, 89.04451
1317.646, 89.37089
1318.129, 89.69987
1318.611, 90.0313
1319.093, 90.36153
1319.575, 90.68565
1320.057, 90.99944
1320.539, 91.30077
1321.021, 91.58997
1321.503, 91.86942
1321.986, 92.14218
1322.468, 92.41052
1322.95, 92.67475
1323.432, 92.93287
1323.914, 93.18071
1324.396, 93.41301
1324.878, 93.62466
1325.36, 93.81184
1325.843, 93.97262
1326.325, 94.10712
1326.807, 94.21699
1327.289, 94.30495
1327.771, 94.37394
1328.253, 94.42674
1328.735, 94.46602
1329.218, 94.49422
1329.7, 94.51362
1330.182, 94.52605
1330.664, 94.53255
1331.146, 94.53268
1331.628, 94.52409
1332.11, 94.50238
1332.592, 94.46148
1333.074, 94.39417
1333.557, 94.29249
1334.039, 94.14766
1334.521, 93.94906
1335.003, 93.68326
1335.485, 93.33334
1335.967, 92.87987
1336.449, 92.30463
1336.931, 91.59704
1337.414, 90.7618
1337.896, 89.82635
1338.378, 88.84447
1338.86, 87.89421
1339.342, 87.06899
1339.824, 86.46279
1340.306, 86.15256
1340.788, 86.1825
1341.271, 86.55431
1341.753, 87.22607
1342.235, 88.12023
1342.717, 89.13889
1343.199, 90.18163
1343.681, 91.16236
1344.163, 92.02032
1344.646, 92.72421
1345.128, 93.26823
1345.61, 93.66398
1346.092, 93.93068
1346.574, 94.08752
1347.056, 94.15007
1347.538, 94.13046
1348.02, 94.04023
1348.502, 93.89346
1348.985, 93.7083
1349.467, 93.50617
1349.949, 93.30936
1350.431, 93.1374
1350.913, 93.00421
1351.395, 92.9168
1351.877, 92.87521
1352.359, 92.87416
1352.842, 92.90483
1353.324, 92.95663
1353.806, 93.01811
1354.288, 93.07725
1354.77, 93.12074
1355.252, 93.13339
1355.734, 93.09728
1356.216, 92.992
1356.698, 92.79565
1357.181, 92.48761
1357.663, 92.0528
1358.145, 91.48702
1358.627, 90.80204
1359.109, 90.02914
1359.591, 89.2191
1360.073, 88.43758
1360.556, 87.75624
1361.038, 87.24146
1361.52, 86.94232
1362.002, 86.88214
1362.484, 87.05459
1362.966, 87.42662
1363.448, 87.94678
1363.93, 88.55705
1364.413, 89.20477
1364.895, 89.8513
1365.377, 90.4753
1365.859, 91.07066
1366.341, 91.6405
1366.823, 92.19013
1367.305, 92.72136
1367.787, 93.22973
1368.27, 93.70522
1368.752, 94.13528
1369.234, 94.50853
1369.716, 94.81796
1370.198, 95.06223
1370.68, 95.24537
1371.162, 95.37524
1371.644, 95.46168
1372.126, 95.51474
1372.609, 95.54374
1373.091, 95.55653
1373.573, 95.55936
1374.055, 95.55664
1374.537, 95.55111
1375.019, 95.54373
1375.501, 95.53421
1375.984, 95.52154
1376.466, 95.50465
1376.948, 95.483
1377.43, 95.45668
1377.912, 95.42621
1378.394, 95.39198
1378.876, 95.35365
1379.358, 95.30957
1379.841, 95.25668
1380.323, 95.19096
1380.805, 95.10759
1381.287, 95.00189
1381.769, 94.86948
1382.251, 94.70682
1382.733, 94.51061
1383.215, 94.2777
1383.698, 94.00423
1384.18, 93.68537
1384.662, 93.31532
1385.144, 92.8883
1385.626, 92.40043
1386.108, 91.85217
1386.59, 91.25098
1387.072, 90.61331
1387.554, 89.96494
1388.037, 89.33926
1388.519, 88.77372
1389.001, 88.30451
1389.483, 87.96133
1389.965, 87.76257
1390.447, 87.71261
1390.929, 87.80148
1391.411, 88.00659
1391.894, 88.29691
1392.376, 88.63777
1392.858, 88.9957
1393.34, 89.34242
1393.822, 89.6572
1394.304, 89.92793
1394.786, 90.15034
1395.269, 90.32629
1395.751, 90.46152
1396.233, 90.56276
1396.715, 90.63589
1397.197, 90.68423
1397.679, 90.70831
1398.161, 90.70637
1398.643, 90.67569
1399.125, 90.61408
1399.608, 90.52158
1400.09, 90.40098
1400.572, 90.25784
1401.054, 90.09936
1401.536, 89.93321
1402.018, 89.76595
1402.5, 89.60236
1402.982, 89.44497
1403.465, 89.29442
1403.947, 89.15004
1404.429, 89.0104
1404.911, 88.87383
1405.393, 88.73878
1405.875, 88.60368
1406.357, 88.46737
1406.839, 88.3288
1407.322, 88.18741
1407.804, 88.04285
1408.286, 87.89511
1408.768, 87.74386
1409.25, 87.58814
1409.732, 87.42577
1410.214, 87.25313
1410.697, 87.06506
1411.179, 86.85509
1411.661, 86.61557
1412.143, 86.33804
1412.625, 86.01343
1413.107, 85.6322
1413.589, 85.18477
1414.071, 84.66217
1414.553, 84.05646
1415.036, 83.36145
1415.518, 82.57273
1416.0, 81.68771
1416.482, 80.70549
1416.964, 79.62714
1417.446, 78.45689
1417.928, 77.20397
1418.41, 75.8848
1418.893, 74.52458
1419.375, 73.15721
1419.857, 71.82294
1420.339, 70.56439
1420.821, 69.42178
1421.303, 68.42944
1421.785, 67.61385
1422.267, 66.99397
1422.75, 66.58245
1423.232, 66.38696
1423.714, 66.41071
1424.196, 66.65212
1424.678, 67.10384
1425.16, 67.75203
1425.642, 68.57632
1426.125, 69.55061
1426.607, 70.64456
1427.089, 71.82477
1427.571, 73.05632
1428.053, 74.30391
1428.535, 75.53313
1429.017, 76.7121
1429.499, 77.81293
1429.981, 78.81295
1430.464, 79.69525
1430.946, 80.44847
1431.428, 81.06605
1431.91, 81.54514
1432.392, 81.88557
1432.874, 82.08899
1433.356, 82.15835
1433.838, 82.09798
1434.321, 81.91444
1434.803, 81.61777
1435.285, 81.22344
1435.767, 80.75355
1436.249, 80.23698
1436.731, 79.70743
1437.213, 79.19962
1437.696, 78.74462
1438.177, 78.36603
1438.66, 78.07727
1439.142, 77.88119
1439.624, 77.77067
1440.106, 77.72951
1440.588, 77.73338
1441.07, 77.7508
1441.552, 77.74458
1442.035, 77.67471
1442.517, 77.50304
1442.999, 77.19979
1443.481, 76.75076
1443.963, 76.1638
1444.445, 75.47255
1444.927, 74.7358
1445.409, 74.03159
1445.892, 73.44711
1446.374, 73.06542
1446.856, 72.95261
1447.338, 73.14682
1447.82, 73.65188
1448.302, 74.43683
1448.784, 75.44173
1449.266, 76.58868
1449.749, 77.795
1450.231, 78.98533
1450.713, 80.10014
1451.195, 81.09925
1451.677, 81.96127
1452.159, 82.68031
1452.641, 83.26138
1453.124, 83.71585
1453.605, 84.05722
1454.088, 84.29735
1454.57, 84.44387
1455.052, 84.49825
1455.534, 84.4555
1456.016, 84.30511
1456.498, 84.03357
1456.98, 83.62758
1457.463, 83.07765
1457.945, 82.3808
1458.427, 81.54254
1458.909, 80.578
1459.391, 79.51282
1459.873, 78.38342
1460.355, 77.23617
1460.837, 76.12447
1461.32, 75.10367
1461.802, 74.22417
1462.284, 73.52462
1462.766, 73.02638
1463.248, 72.73129
1463.73, 72.62218
1464.212, 72.66652
1464.694, 72.82154
1465.177, 73.03954
1465.659, 73.27146
1466.141, 73.46862
1466.623, 73.58247
1467.105, 73.56467
1467.587, 73.36929
1468.069, 72.9591
1468.552, 72.31466
1469.033, 71.44463
1469.516, 70.39247
1469.998, 69.2365
1470.48, 68.08139
1470.962, 67.04205
1471.444, 66.22249
1471.926, 65.69459
1472.408, 65.48166
1472.891, 65.55131
1473.373, 65.82018
1473.855, 66.16982
1474.337, 66.4696
1474.819, 66.60101
1475.301, 66.47757
1475.783, 66.05761
1476.265, 65.34843
1476.748, 64.40323
1477.23, 63.31195
1477.712, 62.18847
1478.194, 61.15617
1478.676, 60.33408
1479.158, 59.82491
1479.64, 59.70585
1480.122, 60.02164
1480.604, 60.7807
1481.087, 61.95444
1481.569, 63.48076
1482.051, 65.27191
1482.533, 67.22551
1483.015, 69.23759
1483.497, 71.21431
1483.979, 73.08092
1484.461, 74.787
1484.944, 76.30712
1485.426, 77.63875
1485.908, 78.79719
1486.39, 79.80966
1486.872, 80.70887
1487.354, 81.52753
1487.836, 82.29408
1488.319, 83.03043
1488.801, 83.75089
1489.283, 84.46283
1489.765, 85.16773
1490.247, 85.86278
1490.729, 86.54201
1491.211, 87.19802
1491.693, 87.82297
1492.176, 88.4101
1492.658, 88.95463
1493.14, 89.45457
1493.622, 89.91099
1494.104, 90.32771
1494.586, 90.71038
1495.068, 91.06548
1495.55, 91.39926
1496.032, 91.71694
1496.515, 92.02231
1496.997, 92.3175
1497.479, 92.60334
1497.961, 92.87938
1498.443, 93.14416
1498.925, 93.39565
1499.407, 93.63146
1499.89, 93.84956
1500.372, 94.04874
1500.854, 94.22899
1501.336, 94.39174
1501.818, 94.53928
1502.3, 94.67432
1502.782, 94.79916
1503.264, 94.91526
1503.747, 95.02334
1504.229, 95.12369
1504.711, 95.21661
1505.193, 95.30295
1505.675, 95.38412
1506.157, 95.46175
1506.639, 95.53723
1507.121, 95.61115
1507.604, 95.6832
1508.086, 95.7523
1508.568, 95.8171
1509.05, 95.87633
1509.532, 95.92918
1510.014, 95.97496
1510.496, 96.01335
1510.979, 96.04409
1511.46, 96.06742
1511.943, 96.08423
1512.425, 96.09657
1512.907, 96.10775
1513.389, 96.12199
1513.871, 96.14366
1514.353, 96.17637
1514.835, 96.22194
1515.318, 96.28012
1515.8, 96.34834
1516.282, 96.42233
1516.764, 96.49701
1517.246, 96.56738
1517.728, 96.62924
1518.21, 96.67993
1518.692, 96.71846
1519.175, 96.74538
1519.657, 96.76292
1520.139, 96.77455
1520.621, 96.78456
1521.103, 96.79723
1521.585, 96.81577
1522.067, 96.84139
1522.549, 96.87264
1523.031, 96.9057
1523.514, 96.9354
1523.996, 96.95673
1524.478, 96.96644
1524.96, 96.96441
1525.442, 96.9538
1525.924, 96.94083
1526.406, 96.93286
1526.888, 96.93672
1527.371, 96.95634
1527.853, 96.99186
1528.335, 97.03931
1528.817, 97.0917
1529.299, 97.14067
1529.781, 97.17863
1530.263, 97.2006
1530.746, 97.2051
1531.228, 97.19427
1531.71, 97.17305
1532.192, 97.1476
1532.674, 97.12363
1533.156, 97.10519
1533.638, 97.09393
1534.12, 97.08913
1534.603, 97.08858
1535.085, 97.08945
1535.567, 97.08917
1536.049, 97.08596
1536.531, 97.07889
1537.013, 97.06747
1537.495, 97.05166
1537.977, 97.03156
1538.459, 97.00797
1538.942, 96.98244
1539.424, 96.95768
1539.906, 96.93707
1540.388, 96.9239
1540.87, 96.92019
1541.352, 96.92577
1541.834, 96.93782
1542.316, 96.95138
1542.799, 96.9604
1543.281, 96.95944
1543.763, 96.94482
1544.245, 96.91542
1544.727, 96.87268
1545.209, 96.81977
1545.691, 96.76012
1546.174, 96.69656
1546.656, 96.63061
1547.138, 96.56259
1547.62, 96.49232
1548.102, 96.4198
1548.584, 96.34561
1549.066, 96.27064
1549.548, 96.19539
1550.031, 96.119
1550.513, 96.03873
1550.995, 95.95006
1551.477, 95.84761
1551.959, 95.7266
1552.441, 95.58422
1552.923, 95.42062
1553.405, 95.23867
1553.887, 95.04332
1554.37, 94.83983
1554.852, 94.63225
1555.334, 94.42236
1555.816, 94.2094
1556.298, 93.99072
1556.78, 93.76291
1557.262, 93.52282
1557.744, 93.26885
1558.227, 93.00116
1558.709, 92.72182
1559.191, 92.43423
1559.673, 92.14243
1560.155, 91.84999
1560.637, 91.55926
1561.119, 91.27038
1561.602, 90.98112
1562.083, 90.68671
1562.566, 90.38026
1563.048, 90.05354
1563.53, 89.6979
1564.012, 89.30533
1564.494, 88.86926
1564.976, 88.38461
1565.458, 87.84738
1565.941, 87.25372
1566.423, 86.59882
1566.905, 85.87643
1567.387, 85.07898
1567.869, 84.19829
1568.351, 83.22678
1568.833, 82.15868
1569.315, 80.99121
1569.798, 79.72539
1570.28, 78.36683
1570.762, 76.92617
1571.244, 75.41927
1571.726, 73.86716
1572.208, 72.29509
1572.69, 70.73164
1573.172, 69.20718
1573.655, 67.75296
1574.137, 66.40046
1574.619, 65.18098
1575.101, 64.1248
1575.583, 63.25996
1576.065, 62.61008
1576.547, 62.19231
1577.03, 62.01576
1577.511, 62.08147
1577.994, 62.38418
1578.476, 62.9141
1578.958, 63.65871
1579.44, 64.60287
1579.922, 65.72806
1580.404, 67.01055
1580.886, 68.42049
1581.369, 69.92164
1581.851, 71.47315
1582.333, 73.03217
1582.815, 74.55669
1583.297, 76.00845
1583.779, 77.35497
1584.261, 78.57091
1584.743, 79.63889
1585.226, 80.5492
1585.708, 81.29851
1586.19, 81.88728
1586.672, 82.31718
1587.154, 82.5883
1587.636, 82.69794
1588.118, 82.64037
1588.6, 82.40808
1589.083, 81.99316
1589.565, 81.38852
1590.047, 80.58857
1590.529, 79.58986
1591.011, 78.3921
1591.493, 77.00084
1591.975, 75.43069
1592.458, 73.70949
1592.939, 71.88084
1593.422, 70.00488
1593.904, 68.15558
1594.386, 66.41571
1594.868, 64.86985
1595.35, 63.597
1595.832, 62.6638
1596.314, 62.11921
1596.797, 61.99148
1597.279, 62.28712
1597.761, 62.99204
1598.243, 64.07415
1598.725, 65.48655
1599.207, 67.17127
1599.689, 69.06271
1600.171, 71.09203
1600.654, 73.19112
1601.136, 75.29715
1601.618, 77.35611
1602.1, 79.32516
1602.582, 81.17323
1603.064, 82.88034
1603.546, 84.43595
1604.028, 85.83721
1604.51, 87.08739
1604.993, 88.19461
1605.475, 89.17053
1605.957, 90.02899
1606.439, 90.78453
1606.921, 91.45122
1607.403, 92.04159
1607.885, 92.56672
1608.367, 93.03577
1608.85, 93.45676
1609.332, 93.83617
1609.814, 94.17921
1610.296, 94.48944
1610.778, 94.7691
1611.26, 95.01933
1611.742, 95.24107
1612.225, 95.4359
1612.707, 95.60649
1613.189, 95.75662
1613.671, 95.89063
1614.153, 96.01249
1614.635, 96.12531
1615.117, 96.23095
1615.599, 96.33066
1616.082, 96.42538
1616.564, 96.5164
1617.046, 96.60499
1617.528, 96.6923
1618.01, 96.77827
1618.492, 96.86161
1618.974, 96.9397
1619.456, 97.00974
1619.938, 97.0699
1620.421, 97.12023
1620.903, 97.16288
1621.385, 97.20163
1621.867, 97.24037
1622.349, 97.28213
1622.831, 97.32758
1623.313, 97.37531
1623.796, 97.42217
1624.278, 97.46463
1624.76, 97.49973
1625.242, 97.5259
1625.724, 97.54306
1626.206, 97.55245
1626.688, 97.55621
1627.17, 97.55704
1627.653, 97.55781
1628.135, 97.56136
1628.617, 97.56966
1629.099, 97.58333
1629.581, 97.60106
1630.063, 97.61967
1630.545, 97.63498
1631.027, 97.64312
1631.51, 97.64185
1631.992, 97.63178
1632.474, 97.61621
1632.956, 97.60033
1633.438, 97.58952
1633.92, 97.58768
1634.402, 97.59612
1634.885, 97.61327
1635.366, 97.63558
1635.849, 97.65893
1636.331, 97.67986
1636.813, 97.6963
1637.295, 97.7076
1637.777, 97.71391
1638.259, 97.71547
1638.741, 97.71239
1639.224, 97.70461
1639.706, 97.69235
1640.188, 97.67643
1640.67, 97.65804
1641.152, 97.63844
1641.634, 97.61823
1642.116, 97.59702
1642.598, 97.57356
1643.081, 97.54608
1643.563, 97.51308
1644.045, 97.47369
1644.527, 97.42804
1645.009, 97.37672
1645.491, 97.32068
1645.973, 97.26092
1646.455, 97.1985
1646.938, 97.13512
1647.42, 97.0731
1647.902, 97.01546
1648.384, 96.96501
1648.866, 96.92338
1649.348, 96.8903
1649.83, 96.86316
1650.313, 96.83778
1650.794, 96.80959
1651.277, 96.77512
1651.759, 96.73293
1652.241, 96.68381
1652.723, 96.63017
1653.205, 96.57449
1653.687, 96.51798
1654.169, 96.4603
1654.652, 96.39973
1655.134, 96.33479
1655.616, 96.26522
1656.098, 96.19253
1656.58, 96.11948
1657.062, 96.0493
1657.544, 95.98439
1658.026, 95.92574
1658.509, 95.87311
1658.991, 95.82571
1659.473, 95.7833
1659.955, 95.7465
1660.437, 95.71648
1660.919, 95.69398
1661.401, 95.67794
1661.883, 95.66508
1662.365, 95.64997
1662.848, 95.62711
1663.33, 95.59257
1663.812, 95.546
1664.294, 95.49117
1664.776, 95.4353
1665.258, 95.38683
1665.74, 95.35322
1666.222, 95.33917
1666.705, 95.3458
1667.187, 95.37099
1667.669, 95.41074
1668.151, 95.46055
1668.633, 95.51629
1669.115, 95.57505
1669.597, 95.63475
1670.08, 95.69349
1670.562, 95.74917
1671.044, 95.79929
1671.526, 95.84135
1672.008, 95.87364
1672.49, 95.89584
1672.972, 95.90957
1673.454, 95.9184
1673.937, 95.92725
1674.419, 95.94145
1674.901, 95.96552
1675.383, 96.0021
1675.865, 96.05131
1676.347, 96.1107
1676.829, 96.17625
1677.311, 96.24349
1677.793, 96.30888
1678.276, 96.3709
1678.758, 96.43039
1679.24, 96.49037
1679.722, 96.55481
1680.204, 96.62745
1680.686, 96.71043
1681.168, 96.80376
1681.65, 96.90491
1682.133, 97.00974
1682.615, 97.1132
1683.097, 97.21066
1683.579, 97.29847
1684.061, 97.37485
1684.543, 97.43956
1685.025, 97.4939
1685.508, 97.53996
1685.99, 97.58007
1686.472, 97.61651
1686.954, 97.6516
1687.436, 97.68744
1687.918, 97.72602
1688.4, 97.76897
1688.882, 97.81674
1689.365, 97.86838
1689.847, 97.92119
1690.329, 97.97133
1690.811, 98.01457
1691.293, 98.04795
1691.775, 98.07111
1692.257, 98.08659
1692.739, 98.09989
1693.221, 98.11768
1693.704, 98.14603
1694.186, 98.18817
1694.668, 98.24317
1695.15, 98.30528
1695.632, 98.36542
1696.114, 98.41328
1696.596, 98.44044
1697.078, 98.44244
1697.561, 98.42027
1698.043, 98.37914
1698.525, 98.32787
1699.007, 98.27636
1699.489, 98.23466
1699.971, 98.21111
1700.453, 98.21092
1700.936, 98.23539
1701.417, 98.28154
1701.9, 98.34253
1702.382, 98.40908
1702.864, 98.47092
1703.346, 98.51865
1703.828, 98.54561
1704.31, 98.54902
1704.792, 98.5312
1705.275, 98.49874
1705.757, 98.46136
1706.239, 98.42909
1706.721, 98.40973
1707.203, 98.40686
1707.685, 98.41885
1708.167, 98.43993
1708.649, 98.46147
1709.132, 98.47461
1709.614, 98.47215
1710.096, 98.45049
1710.578, 98.41015
1711.06, 98.35564
1711.542, 98.29416
1712.024, 98.234
1712.506, 98.18239
1712.989, 98.14434
1713.471, 98.12137
1713.953, 98.1118
1714.435, 98.11171
1714.917, 98.11689
1715.399, 98.12431
1715.881, 98.13338
1716.364, 98.14584
1716.845, 98.16438
1717.328, 98.19071
1717.81, 98.22343
1718.292, 98.25746
1718.774, 98.28479
1719.256, 98.29668
1719.738, 98.2868
1720.22, 98.25301
1720.703, 98.19842
1721.185, 98.13058
1721.667, 98.05902
1722.149, 97.99267
1722.631, 97.93777
1723.113, 97.89674
1723.595, 97.86864
1724.077, 97.85025
1724.56, 97.83757
1725.042, 97.82681
1725.524, 97.81501
1726.006, 97.79962
1726.488, 97.77856
1726.97, 97.75038
1727.452, 97.71522
1727.934, 97.67535
1728.417, 97.63579
1728.899, 97.60354
1729.381, 97.58619
1729.863, 97.58904
1730.345, 97.61392
1730.827, 97.65776
1731.309, 97.71339
1731.792, 97.77168
1732.273, 97.82402
1732.756, 97.86512
1733.238, 97.89422
1733.72, 97.91517
1734.202, 97.93484
1734.684, 97.96066
1735.166, 97.9979
1735.648, 98.04814
1736.131, 98.10892
1736.613, 98.17432
1737.095, 98.23692
1737.577, 98.28935
1738.059, 98.32629
1738.541, 98.34528
1739.023, 98.34784
1739.505, 98.33841
1739.988, 98.32365
1740.47, 98.3102
1740.952, 98.30313
1741.434, 98.30466
1741.916, 98.31419
1742.398, 98.32947
1742.88, 98.3475
1743.362, 98.36617
1743.844, 98.38446
1744.327, 98.40229
1744.809, 98.41975
1745.291, 98.436
1745.773, 98.44939
1746.255, 98.45822
1746.737, 98.46198
1747.219, 98.46272
1747.702, 98.46529
1748.184, 98.4761
1748.666, 98.50071
1749.148, 98.54108
1749.63, 98.59393
1750.112, 98.65051
1750.594, 98.69917
1751.076, 98.72885
1751.559, 98.73308
1752.041, 98.71214
1752.523, 98.67303
1753.005, 98.62634
1753.487, 98.58295
1753.969, 98.54994
1754.451, 98.52934
1754.933, 98.51823
1755.416, 98.51152
1755.898, 98.50417
1756.38, 98.49418
1756.862, 98.48264
1757.344, 98.47324
1757.826, 98.46986
1758.308, 98.47453
1758.791, 98.48651
1759.272, 98.50241
1759.755, 98.51774
1760.237, 98.52898
1760.719, 98.53477
1761.201, 98.53645
1761.683, 98.53707
1762.165, 98.54002
1762.647, 98.54691
1763.13, 98.55702
1763.612, 98.56715
1764.094, 98.57301
1764.576, 98.57076
1765.058, 98.55892
1765.54, 98.53893
1766.022, 98.51514
1766.504, 98.49332
1766.987, 98.47916
1767.469, 98.47579
1767.951, 98.48327
1768.433, 98.49802
1768.915, 98.51453
1769.397, 98.52663
1769.879, 98.53019
1770.361, 98.52348
1770.844, 98.50809
1771.326, 98.48721
1771.808, 98.46465
1772.29, 98.44303
1772.772, 98.42307
1773.254, 98.404
1773.736, 98.38452
1774.219, 98.36419
1774.7, 98.34425
1775.183, 98.32743
1775.665, 98.31705
1776.147, 98.31549
1776.629, 98.32316
1777.111, 98.33796
1777.593, 98.35599
1778.075, 98.37254
1778.558, 98.38394
1779.04, 98.38806
1779.522, 98.38501
1780.004, 98.3764
1780.486, 98.36502
1780.968, 98.35414
1781.45, 98.34709
1781.932, 98.34704
1782.415, 98.35681
1782.897, 98.3779
1783.379, 98.40994
1783.861, 98.44994
1784.343, 98.49261
1784.825, 98.53125
1785.307, 98.55996
1785.789, 98.57534
1786.271, 98.57809
1786.754, 98.57253
1787.236, 98.56517
1787.718, 98.56207
1788.2, 98.56654
1788.682, 98.57849
1789.164, 98.59449
1789.646, 98.61028
1790.128, 98.62253
1790.611, 98.63069
1791.093, 98.63736
1791.575, 98.6468
1792.057, 98.66327
1792.539, 98.68893
1793.021, 98.72334
1793.503, 98.76369
1793.986, 98.80656
1794.468, 98.8487
1794.95, 98.8881
1795.432, 98.92368
1795.914, 98.95462
1796.396, 98.97984
1796.878, 98.99832
1797.36, 99.00961
1797.843, 99.01539
1798.325, 99.01936
1798.807, 99.02695
1799.289, 99.04324
1799.771, 99.07069
1800.253, 99.10732
1800.735, 99.14657
1801.217, 99.17901
1801.699, 99.19532
1802.182, 99.18986
1802.664, 99.16254
1803.146, 99.11891
1803.628, 99.06831
1804.11, 99.02042
1804.592, 98.98258
1805.074, 98.9576
1805.556, 98.94418
1806.039, 98.93806
1806.521, 98.93464
1807.003, 98.93051
1807.485, 98.92484
1807.967, 98.91875
1808.449, 98.91446
1808.931, 98.91373
1809.414, 98.9175
1809.896, 98.92541
1810.378, 98.93653
1810.86, 98.95033
1811.342, 98.96702
1811.824, 98.98801
1812.306, 99.01511
1812.788, 99.04993
1813.271, 99.0929
1813.753, 99.14249
1814.235, 99.1953
1814.717, 99.24599
1815.199, 99.28845
1815.681, 99.31702
1816.163, 99.32792
1816.645, 99.32063
1817.127, 99.2985
1817.61, 99.26836
1818.092, 99.23911
1818.574, 99.2189
1819.056, 99.21306
1819.538, 99.22162
1820.02, 99.23942
1820.502, 99.2569
1820.984, 99.26331
1821.467, 99.24988
1821.949, 99.21294
1822.431, 99.15561
1822.913, 99.08773
1823.395, 99.02362
1823.877, 98.97894
1824.359, 98.96642
1824.842, 98.99265
1825.323, 99.05566
1825.806, 99.14509
1826.288, 99.244
1826.77, 99.33285
1827.252, 99.39348
1827.734, 99.41337
1828.216, 99.38776
1828.698, 99.32052
1829.181, 99.22256
1829.663, 99.1093
1830.145, 98.99699
1830.627, 98.90007
1831.109, 98.82893
1831.591, 98.78918
1832.073, 98.78168
1832.555, 98.80359
1833.038, 98.84879
1833.52, 98.90913
1834.002, 98.97514
1834.484, 99.03724
1834.966, 99.08685
1835.448, 99.11776
1835.93, 99.12688
1836.412, 99.11449
1836.895, 99.08359
1837.377, 99.0387
1837.859, 98.98529
1838.341, 98.92936
1838.823, 98.87765
1839.305, 98.83781
1839.787, 98.81798
1840.27, 98.82554
1840.751, 98.86446
1841.234, 98.93293
1841.716, 99.02214
1842.198, 99.11718
1842.68, 99.20007
1843.162, 99.25462
1843.644, 99.27084
1844.126, 99.24797
1844.609, 99.19315
1845.091, 99.11839
1845.573, 99.03493
1846.055, 98.9497
1846.537, 98.86414
1847.019, 98.77655
1847.501, 98.68565
1847.983, 98.59483
1848.466, 98.5127
1848.948, 98.45139
1849.43, 98.42145
1849.912, 98.42754
1850.394, 98.46512
1850.876, 98.5215
1851.358, 98.5801
1851.84, 98.62637
1852.323, 98.65285
1852.805, 98.66114
1853.287, 98.65963
1853.769, 98.65924
1854.251, 98.66785
1854.733, 98.68766
1855.215, 98.71491
1855.698, 98.74339
1856.179, 98.7681
1856.662, 98.78881
1857.144, 98.81029
1857.626, 98.8407
1858.108, 98.88759
1858.59, 98.95464
1859.072, 99.03967
1859.554, 99.13553
1860.037, 99.23179
1860.519, 99.31796
1861.001, 99.38478
1861.483, 99.42571
1861.965, 99.43601
1862.447, 99.41301
1862.929, 99.35637
1863.411, 99.26917
1863.894, 99.15866
1864.376, 99.03691
1864.858, 98.91833
1865.34, 98.81706
1865.822, 98.74294
1866.304, 98.69881
1866.786, 98.68001
1867.268, 98.67653
1867.75, 98.67715
1868.233, 98.67409
1868.715, 98.66573
1869.197, 98.6572
1869.679, 98.65752
1870.161, 98.67575
1870.643, 98.71613
1871.125, 98.77666
1871.608, 98.84853
1872.09, 98.91965
1872.572, 98.97861
1873.054, 99.01897
1873.536, 99.0411
1874.018, 99.0522
1874.5, 99.06405
1874.982, 99.08927
1875.465, 99.13757
1875.947, 99.21387
1876.429, 99.3168
1876.911, 99.43985
1877.393, 99.57223
1877.875, 99.70023
1878.357, 99.80827
1878.839, 99.8802
1879.322, 99.9003
1879.804, 99.8564
1880.286, 99.74213
1880.768, 99.56092
1881.25, 99.3271
1881.732, 99.06528
1882.214, 98.80598
1882.697, 98.57917
1883.178, 98.40656
1883.661, 98.29615
1884.143, 98.24104
1884.625, 98.22241
1885.107, 98.21663
1885.589, 98.20444
1886.071, 98.17723
1886.553, 98.14069
1887.036, 98.11134
1887.518, 98.11067
1888.0, 98.15684
1888.482, 98.25848
1888.964, 98.41128
1889.446, 98.5999
1889.928, 98.80182
1890.41, 98.99351
1890.893, 99.15414
1891.375, 99.26881
1891.857, 99.32832
1892.339, 99.32929
1892.821, 99.27273
1893.303, 99.16432
1893.785, 99.01435
1894.267, 98.8377
1894.75, 98.65178
1895.232, 98.47478
1895.714, 98.32294
1896.196, 98.2097
1896.678, 98.1448
1897.16, 98.13529
1897.642, 98.18559
1898.125, 98.29716
1898.606, 98.46571
1899.089, 98.67935
1899.571, 98.91655
1900.053, 99.14797
1900.535, 99.34103
1901.017, 99.46728
1901.499, 99.50979
1901.981, 99.46877
1902.464, 99.36102
1902.946, 99.21592
1903.428, 99.06771
1903.91, 98.94765
1904.392, 98.87771
1904.874, 98.8679
1905.356, 98.91484
1905.838, 99.00388
1906.321, 99.10958
1906.803, 99.19991
1907.285, 99.23994
1907.767, 99.19942
1908.249, 99.06043
1908.731, 98.82511
1909.213, 98.51814
1909.695, 98.18304
1910.177, 97.87169
1910.66, 97.63134
1911.142, 97.49204
1911.624, 97.46144
1912.106, 97.52606
1912.588, 97.65942
1913.07, 97.83282
1913.552, 98.02341
1914.034, 98.21635
1914.517, 98.40144
1914.999, 98.56607
1915.481, 98.69189
1915.963, 98.75654
1916.445, 98.74315
1916.927, 98.65097
1917.409, 98.50315
1917.892, 98.34415
1918.374, 98.2271
1918.856, 98.19508
1919.338, 98.26488
1919.82, 98.42009
1920.302, 98.61736
1920.784, 98.8028
1921.266, 98.93201
1921.749, 98.98425
1922.231, 98.96668
1922.713, 98.90549
1923.195, 98.83202
1923.677, 98.76807
1924.159, 98.72047
1924.641, 98.68394
1925.123, 98.6513
1925.605, 98.62224
1926.088, 98.60765
1926.57, 98.623
1927.052, 98.67955
1927.534, 98.77323
1928.016, 98.8834
1928.498, 98.9781
1928.98, 99.02882
1929.462, 99.02252
1929.945, 98.96893
1930.427, 98.89434
1930.909, 98.82939
1931.391, 98.79296
1931.873, 98.78432
1932.355, 98.78323
1932.837, 98.76131
1933.32, 98.6957
1933.802, 98.57959
1934.284, 98.42406
1934.766, 98.25068
1935.248, 98.08012
1935.73, 97.92335
1936.212, 97.78032
1936.694, 97.64632
1937.177, 97.52141
1937.659, 97.41814
1938.141, 97.35973
1938.623, 97.37362
1939.105, 97.47726
1939.587, 97.67059
1940.069, 97.93274
1940.551, 98.22975
1941.033, 98.52557
1941.516, 98.794
1941.998, 99.02036
1942.48, 99.19862
1942.962, 99.32054
1943.444, 99.36952
1943.926, 99.32143
1944.408, 99.1581
1944.89, 98.88349
1945.373, 98.5397
1945.855, 98.20713
1946.337, 97.99191
1946.819, 97.99699
1947.301, 98.2923
1947.783, 98.88715
1948.265, 99.72108
1948.748, 100.6713
1949.229, 101.581
1949.712, 102.2984
1950.194, 102.7183
1950.676, 102.8068
1951.158, 102.6063
1951.64, 102.2139
1952.122, 101.7443
1952.604, 101.2887
1953.087, 100.8878
1953.569, 100.5251
1954.051, 100.1438
1954.533, 99.68048
1955.015, 99.10306
1955.497, 98.43745
1955.979, 97.77009
1956.461, 97.22249
1956.944, 96.91151
1957.426, 96.90463
1957.908, 97.19181
1958.39, 97.67931
1958.872, 98.21343
1959.354, 98.62997
1959.836, 98.81599
1960.318, 98.75141
1960.801, 98.51313
1961.283, 98.23361
1961.765, 98.04085
1962.247, 98.00507
1962.729, 98.11755
1963.211, 98.30419
1963.693, 98.47176
1964.176, 98.5561
1964.657, 98.55759
1965.14, 98.53746
1965.622, 98.58434
1966.104, 98.76473
1966.586, 99.08733
1967.068, 99.49165
1967.55, 99.87108
1968.032, 100.1146
1968.515, 100.1573
1968.997, 100.0074
1969.479, 99.74309
1969.961, 99.47659
1970.443, 99.30975
1970.925, 99.29761
1971.407, 99.43781
1971.889, 99.67927
1972.372, 99.95179
1972.854, 100.1889
1973.336, 100.3523
1973.818, 100.4354
1974.3, 100.4595
1974.782, 100.463
1975.264, 100.4927
1975.746, 100.5914
1976.229, 100.7917
1976.711, 101.1011
1977.193, 101.4924
1977.675, 101.8967
1978.157, 102.2163
1978.639, 102.3503
1979.121, 102.2324
1979.604, 101.8545
1980.085, 101.2717
1980.568, 100.581
1981.05, 99.89142
1981.532, 99.29385
1982.014, 98.84129
1982.496, 98.54485
1982.978, 98.3835
1983.46, 98.31754
1983.943, 98.30616
1984.425, 98.31578
1984.907, 98.3232
1985.389, 98.31069
1985.871, 98.26398
1986.353, 98.17178
1986.835, 98.03185
1987.317, 97.855
1987.8, 97.6685
1988.282, 97.50751
1988.764, 97.40586
1989.246, 97.38062
1989.728, 97.42586
1990.21, 97.511
1990.692, 97.59261
1991.174, 97.62736
1991.656, 97.58727
1992.139, 97.46458
1992.621, 97.27183
1993.103, 97.03432
1993.585, 96.78452
1994.067, 96.55648
1994.549, 96.38783
1995.031, 96.3157
1995.514, 96.37315
1995.996, 96.57851
1996.478, 96.92355
1996.96, 97.36423
1997.442, 97.8247
1997.924, 98.21332
1998.406, 98.45226
1998.888, 98.50397
1999.371, 98.391
1999.853, 98.1897
2000.335, 98.00822
2000.817, 97.94807
2001.299, 98.07176
2001.781, 98.38062
2002.263, 98.81631
2002.745, 99.28045
2003.228, 99.66949
2003.71, 99.90607
2004.192, 99.96394
2004.674, 99.8717
2005.156, 99.69955
2005.638, 99.53238
2006.12, 99.4417
2006.603, 99.45724
2007.084, 99.55853
2007.567, 99.67569
2008.049, 99.71447
2008.531, 99.58583
2009.013, 99.24364
2009.495, 98.70729
2009.977, 98.07049
2010.459, 97.47931
2010.942, 97.09662
2011.424, 97.05406
2011.906, 97.41455
2012.388, 98.14694
2012.87, 99.13192
2013.352, 100.1897
2013.834, 101.1322
2014.316, 101.8112
2014.799, 102.1529
2015.281, 102.1579
2015.763, 101.8807
2016.245, 101.392
2016.727, 100.7576
2017.209, 100.031
2017.691, 99.26791
2018.173, 98.54187
2018.656, 97.95056
2019.138, 97.59721
2019.62, 97.55908
2020.102, 97.84972
2020.584, 98.39525
2021.066, 99.0367
2021.548, 99.56694
2022.031, 99.78806
2022.512, 99.57878
2022.995, 98.93083
2023.477, 97.94671
2023.959, 96.79339
2024.441, 95.64064
2024.923, 94.61086
2025.405, 93.76541
2025.887, 93.11489
2026.37, 92.65495
2026.852, 92.39703
2027.334, 92.38785
2027.816, 92.70004
2028.298, 93.40765
2028.78, 94.54823
2029.262, 96.09731
2029.744, 97.95332
2030.227, 99.9457
2030.709, 101.8579
2031.191, 103.4623
2031.673, 104.5587
2032.155, 105.0164
2032.637, 104.8034
2033.119, 103.9999
2033.601, 102.7833
2034.083, 101.3959
2034.566, 100.0918
2035.048, 99.09328
2035.53, 98.54834
2036.012, 98.50764
2036.494, 98.91517
2036.976, 99.62411
2037.458, 100.4261
2037.94, 101.103
2038.423, 101.4782
2038.905, 101.4609
2039.387, 101.0642
2039.869, 100.3951
2040.351, 99.61539
2040.833, 98.8946
2041.315, 98.36296
2041.798, 98.08378
2042.28, 98.046
2042.762, 98.17935
2043.244, 98.37991
2043.726, 98.54462
2044.208, 98.59857
2044.69, 98.51421
2045.172, 98.3071
2045.655, 98.02386
2046.137, 97.716
2046.619, 97.42391
2047.101, 97.16537
2047.583, 96.9408
2048.065, 96.74545
2048.547, 96.58282
2049.029, 96.47068
2049.511, 96.4407
2049.994, 96.52319
2050.476, 96.73607
2050.958, 97.07306
2051.44, 97.50298
2051.922, 97.97263
2052.404, 98.4179
2052.886, 98.77209
2053.368, 98.97977
2053.851, 99.00515
2054.333, 98.84274
2054.815, 98.52005
2055.297, 98.09502
2055.779, 97.64405
2056.261, 97.24608
2056.743, 96.9622
2057.226, 96.82173
2057.708, 96.81397
2058.19, 96.89248
2058.672, 96.98836
2059.154, 97.03583
2059.636, 96.99586
2060.118, 96.87453
2060.6, 96.72124
2061.083, 96.613
2061.565, 96.62526
2062.047, 96.80659
2062.529, 97.16132
2063.011, 97.65193
2063.493, 98.21481
2063.975, 98.78429
2064.457, 99.31217
2064.939, 99.77567
2065.422, 100.1684
2065.904, 100.4852
2066.386, 100.7072
2066.868, 100.8017
2067.35, 100.7354
2067.832, 100.4981
2068.314, 100.1212
2068.796, 99.68247
2069.279, 99.28708
2069.761, 99.03731
2070.243, 98.99572
2070.725, 99.16296
2071.207, 99.47304
2071.689, 99.8157
2072.171, 100.072
2072.654, 100.1548
2073.135, 100.035
2073.618, 99.74567
2074.1, 99.36391
2074.582, 98.98168
2075.064, 98.67555
2075.546, 98.48808
2076.028, 98.42161
2076.51, 98.44688
2076.993, 98.51746
2077.475, 98.58645
2077.957, 98.61819
2078.439, 98.59473
2078.921, 98.51626
2079.403, 98.39761
2079.885, 98.26185
2080.367, 98.13439
2080.85, 98.03562
2081.332, 97.97727
2081.814, 97.95911
2082.296, 97.97108
2082.778, 97.99673
2083.26, 98.02032
2083.742, 98.03094
2084.224, 98.02542
2084.707, 98.00555
2085.189, 97.97513
2085.671, 97.93493
2086.153, 97.88277
2086.635, 97.81528
2087.117, 97.73552
2087.599, 97.65493
2088.082, 97.59577
2088.563, 97.58509
2089.046, 97.64645
2089.528, 97.79006
2090.01, 98.00857
2090.492, 98.27814
2090.974, 98.56729
2091.456, 98.84632
2091.938, 99.09631
2092.421, 99.31206
2092.903, 99.49711
2093.385, 99.65525
2093.867, 99.7823
2094.349, 99.86278
2094.831, 99.87426
2095.313, 99.7951
2095.795, 99.61546
2096.278, 99.34053
2096.76, 98.99024
2097.242, 98.59161
2097.724, 98.1721
2098.206, 97.75531
2098.688, 97.36286
2099.17, 97.01714
2099.652, 96.74575
2100.135, 96.57917
2100.617, 96.54515
2101.099, 96.65939
2101.581, 96.91845
2102.063, 97.2976
2102.545, 97.75655
2103.027, 98.24948
2103.51, 98.73573
2103.991, 99.18593
2104.474, 99.58158
2104.956, 99.9085
2105.438, 100.1501
2105.92, 100.284
2106.402, 100.2887
2106.884, 100.1515
2107.366, 99.88126
2107.849, 99.51208
2108.331, 99.10013
2108.813, 98.70942
2109.295, 98.39722
2109.777, 98.20042
2110.259, 98.13014
2110.741, 98.17475
2111.223, 98.30869
2111.706, 98.501
2112.188, 98.72215
2112.67, 98.9437
2113.152, 99.13746
2113.634, 99.27209
2114.116, 99.31709
2114.598, 99.24925
2115.08, 99.06331
2115.563, 98.77781
2116.045, 98.436
2116.527, 98.09637
2117.009, 97.81888
2117.491, 97.64902
2117.973, 97.60906
2118.455, 97.69363
2118.938, 97.87613
2119.42, 98.11716
2119.902, 98.37528
2120.384, 98.61374
2120.866, 98.80384
2121.348, 98.92496
2121.83, 98.96544
2122.312, 98.92191
2122.794, 98.80348
2123.277, 98.63287
2123.759, 98.44555
2124.241, 98.28294
2124.723, 98.18179
2125.205, 98.16222
2125.687, 98.21912
2126.169, 98.32086
2126.651, 98.41804
2127.134, 98.45678
2127.616, 98.39914
2128.098, 98.23447
2128.58, 97.98525
2129.062, 97.7
2129.544, 97.43949
2130.026, 97.25862
2130.509, 97.1927
2130.99, 97.24908
2131.473, 97.40792
2131.955, 97.62818
2132.437, 97.86163
2132.919, 98.06528
2133.401, 98.21562
2133.883, 98.31332
2134.365, 98.38184
2134.848, 98.457
2135.33, 98.57182
2135.812, 98.73997
2136.294, 98.94798
2136.776, 99.15414
2137.258, 99.30325
2137.74, 99.34402
2138.222, 99.2533
2138.705, 99.04977
2139.187, 98.79807
2139.669, 98.59421
2140.151, 98.5406
2140.633, 98.71519
2141.115, 99.14484
2141.597, 99.78657
2142.079, 100.529
2142.562, 101.2076
2143.044, 101.6418
2143.526, 101.6793
2144.008, 101.2415
2144.49, 100.3487
2144.972, 99.1205
2145.454, 97.74332
2145.937, 96.42703
2146.418, 95.35498
2146.901, 94.65278
2147.383, 94.36916
2147.865, 94.47749
2148.347, 94.89086
2148.829, 95.49244
2149.311, 96.16454
2149.793, 96.82259
2150.276, 97.42953
2150.758, 97.99837
2151.24, 98.57454
2151.722, 99.21319
2152.204, 99.95155
2152.686, 100.7959
2153.168, 101.7108
2153.65, 102.63
2154.133, 103.4656
2154.615, 104.1304
2155.097, 104.5559
2155.579, 104.7086
2156.061, 104.5982
2156.543, 104.275
2157.025, 103.8162
2157.507, 103.3046
2157.99, 102.7998
2158.472, 102.3256
2158.954, 101.8638
2159.436, 101.3792
2159.918, 100.8461
2160.4, 100.2793
2160.882, 99.74419
2161.365, 99.33642
2161.846, 99.15088
2162.329, 99.25517
2162.811, 99.66298
2163.293, 100.3305
2163.775, 101.1619
2164.257, 102.0353
2164.739, 102.8284
2165.221, 103.4449
2165.704, 103.824
2166.186, 103.939
2166.668, 103.7845
2167.15, 103.367
2167.632, 102.6998
2168.114, 101.8079
2168.596, 100.7314
2169.078, 99.53135
2169.561, 98.285
2170.043, 97.08097
2170.525, 96.0066
2171.007, 95.14096
2171.489, 94.54718
2171.971, 94.27142
2172.453, 94.34079
2172.935, 94.76286
2173.417, 95.5155
2173.9, 96.54144
2174.382, 97.73725
2174.864, 98.9607
2175.346, 100.0478
2175.828, 100.8546
2176.31, 101.2934
2176.792, 101.3634
2177.274, 101.1459
2177.757, 100.7778
2178.239, 100.4082
2178.721, 100.1576
2179.203, 100.089
2179.685, 100.2013
2180.167, 100.4357
2180.649, 100.6991
2181.132, 100.8876
2181.614, 100.9137
2182.096, 100.7238
2182.578, 100.3073
2183.06, 99.70029
2183.542, 98.97926
2184.024, 98.24484
2184.506, 97.60503
2184.989, 97.15002
2185.471, 96.93494
2185.953, 96.9651
2186.435, 97.19793
2186.917, 97.555
2187.399, 97.9458
2187.881, 98.29329
2188.363, 98.55463
2188.845, 98.72506
2189.328, 98.83345
2189.81, 98.92345
2190.292, 99.03613
2190.774, 99.19494
2191.256, 99.40208
2191.738, 99.64062
2192.22, 99.88228
2192.702, 100.0937
2193.185, 100.2445
2193.667, 100.311
2194.149, 100.2837
2194.631, 100.1711
2195.113, 100.0067
2195.595, 99.84353
2196.077, 99.74261
2196.56, 99.74884
2197.042, 99.86987
2197.524, 100.0585
2198.006, 100.217
2198.488, 100.2227
2198.97, 99.97292
2199.452, 99.42689
2199.934, 98.63563
2200.417, 97.7343
2200.899, 96.90774
2201.381, 96.33705
2201.863, 96.1475
2202.345, 96.37647
2202.827, 96.96423
2203.309, 97.7728
2203.791, 98.62762
2204.273, 99.36331
2204.756, 99.86546
2205.238, 100.0895
2205.72, 100.0556
2206.202, 99.82648
2206.684, 99.48645
2207.166, 99.11936
2207.648, 98.80043
2208.13, 98.5897
2208.613, 98.52907
2209.095, 98.63541
2209.577, 98.89577
2210.059, 99.26503
2210.541, 99.67621
2211.023, 100.0546
2211.505, 100.3414
2211.988, 100.5101
2212.469, 100.5729
2212.952, 100.5708
2213.434, 100.5536
2213.916, 100.5572
2214.398, 100.5901
2214.88, 100.6296
2215.362, 100.6358
2215.844, 100.5685
2216.327, 100.4064
2216.809, 100.155
2217.291, 99.84423
2217.773, 99.51637
2218.255, 99.21239
2218.737, 98.96016
2219.219, 98.77275
2219.701, 98.64866
2220.184, 98.58089
2220.666, 98.5592
2221.148, 98.57499
2221.63, 98.61917
2222.112, 98.6829
2222.594, 98.7571
2223.076, 98.83383
2223.558, 98.90909
2224.041, 98.98263
2224.523, 99.0565
2225.005, 99.13061
2225.487, 99.19851
2225.969, 99.24721
2226.451, 99.25914
2226.933, 99.22049
2227.416, 99.1285
2227.897, 98.99677
2228.38, 98.85373
2228.862, 98.73566
2229.344, 98.67447
2229.826, 98.6897
2230.308, 98.7807
2230.79, 98.9309
2231.272, 99.11402
2231.755, 99.30541
2232.237, 99.4888
2232.719, 99.65919
2233.201, 99.81895
2233.683, 99.97081
2234.165, 100.1097
2234.647, 100.221
2235.129, 100.281
2235.612, 100.2665
2236.094, 100.1618
2236.576, 99.96909
2237.058, 99.70765
2237.54, 99.41221
2238.022, 99.12218
2238.504, 98.87294
2238.986, 98.68726
2239.469, 98.57278
2239.951, 98.52365
2240.433, 98.52579
2240.915, 98.56228
2241.397, 98.61839
2241.879, 98.68095
2242.361, 98.73756
2242.844, 98.77383
2243.326, 98.77386
2243.808, 98.72295
2244.29, 98.614
2244.772, 98.45378
2245.254, 98.26596
2245.736, 98.08655
2246.218, 97.95538
2246.7, 97.90334
2247.183, 97.94269
2247.665, 98.06288
2248.147, 98.23472
2248.629, 98.42149
2249.111, 98.59158
2249.593, 98.72739
2250.075, 98.82716
2250.557, 98.89703
2251.04, 98.94194
2251.522, 98.95645
2252.004, 98.92424
2252.486, 98.82642
2252.968, 98.65569
2253.45, 98.42818
2253.932, 98.18726
2254.415, 97.99332
2254.896, 97.90589
2255.379, 97.96096
2255.861, 98.15637
2256.343, 98.44899
2256.825, 98.76836
2257.307, 99.03808
2257.789, 99.20103
2258.271, 99.23416
2258.754, 99.15095
2259.236, 98.98923
2259.718, 98.79427
2260.2, 98.60303
2260.682, 98.43687
2261.164, 98.30218
2261.646, 98.1982
2262.128, 98.12305
2262.611, 98.07808
2263.093, 98.0647
2263.575, 98.08073
2264.057, 98.11709
2264.539, 98.15993
2265.021, 98.19808
2265.503, 98.23134
2265.985, 98.27541
2266.468, 98.3594
2266.95, 98.51474
2267.432, 98.76015
2267.914, 99.08949
2268.396, 99.46862
2268.878, 99.8427
2269.36, 100.1538
2269.843, 100.3595
2270.324, 100.4485
2270.807, 100.4428
2271.289, 100.3889
2271.771, 100.3395
2272.253, 100.3368
2272.735, 100.398
2273.217, 100.513
2273.699, 100.6495
2274.182, 100.7647
2274.664, 100.8183
2275.146, 100.7845
2275.628, 100.6567
2276.11, 100.45
2276.592, 100.194
2277.074, 99.9266
2277.556, 99.68388
2278.039, 99.49179
2278.521, 99.3596
2279.003, 99.27795
2279.485, 99.22116
2279.967, 99.1553
2280.449, 99.04882
2280.931, 98.88357
2281.413, 98.66089
2281.896, 98.40269
2282.378, 98.14333
2282.86, 97.91945
2283.342, 97.7584
2283.824, 97.67328
2284.306, 97.66227
2284.788, 97.71535
2285.271, 97.82137
2285.752, 97.97433
2286.235, 98.17416
2286.717, 98.42255
2287.199, 98.71601
2287.681, 99.04013
2288.163, 99.36858
2288.645, 99.66689
2289.127, 99.90157
2289.61, 100.0488
2290.092, 100.1007
2290.574, 100.0665
2291.056, 99.96699
2291.538, 99.82828
2292.02, 99.6736
2292.502, 99.52012
2292.984, 99.37814
2293.467, 99.25388
2293.949, 99.15229
2294.431, 99.0781
2294.913, 99.03552
2295.395, 99.02596
2295.877, 99.04626
2296.359, 99.08882
2296.841, 99.14318
2297.323, 99.1997
2297.806, 99.25169
2298.288, 99.29664
2298.77, 99.33452
2299.252, 99.36528
2299.734, 99.38609
2300.216, 99.39165
2300.698, 99.37594
2301.18, 99.33631
2301.663, 99.27699
2302.145, 99.21043
2302.627, 99.15446
2303.109, 99.12794
2303.591, 99.14388
2304.073, 99.20557
2304.555, 99.30464
2305.038, 99.42429
2305.52, 99.54392
2306.002, 99.6451
2306.484, 99.71576
2306.966, 99.75148
2307.448, 99.75392
2307.93, 99.72822
2308.412, 99.67972
2308.895, 99.61322
2309.377, 99.53318
2309.859, 99.44507
2310.341, 99.35668
2310.823, 99.27768
2311.305, 99.21804
2311.787, 99.18538
2312.269, 99.18293
2312.751, 99.2086
2313.234, 99.2562
2313.716, 99.3179
2314.198, 99.38656
2314.68, 99.45802
2315.162, 99.531
2315.644, 99.60574
2316.126, 99.68174
2316.608, 99.75554
2317.091, 99.81995
2317.573, 99.86555
2318.055, 99.88248
2318.537, 99.86437
2319.019, 99.81059
2319.501, 99.7276
2319.983, 99.62829
2320.466, 99.52898
2320.948, 99.44619
2321.43, 99.3919
2321.912, 99.37102
2322.394, 99.37984
2322.876, 99.40717
2323.358, 99.43775
2323.84, 99.45634
2324.323, 99.45242
2324.805, 99.42282
2325.287, 99.3728
2325.769, 99.31389
2326.251, 99.26103
2326.733, 99.22794
2327.215, 99.22337
2327.697, 99.24867
2328.179, 99.29734
2328.662, 99.35728
2329.144, 99.41438
2329.626, 99.45681
2330.108, 99.4785
2330.59, 99.47983
2331.072, 99.46667
2331.554, 99.44698
2332.036, 99.42823
2332.519, 99.41428
2333.001, 99.40525
2333.483, 99.39787
2333.965, 99.3877
2334.447, 99.37088
2334.929, 99.34583
2335.411, 99.31326
2335.894, 99.27653
2336.375, 99.24058
2336.858, 99.21149
2337.34, 99.19574
2337.822, 99.19939
2338.304, 99.22684
2338.786, 99.2795
2339.268, 99.35442
2339.75, 99.44408
2340.233, 99.53741
2340.715, 99.62215
2341.197, 99.68835
2341.679, 99.73126
2342.161, 99.75282
2342.643, 99.76064
2343.125, 99.76488
2343.607, 99.77439
2344.09, 99.79295
2344.572, 99.81819
2345.054, 99.84234
2345.536, 99.85593
2346.018, 99.85135
2346.5, 99.82618
2346.982, 99.78369
2347.464, 99.73135
2347.947, 99.67764
2348.429, 99.62878
2348.911, 99.58656
2349.393, 99.5489
2349.875, 99.51127
2350.357, 99.46999
2350.839, 99.4244
2351.322, 99.37782
2351.803, 99.33691
2352.286, 99.30958
2352.768, 99.30225
2353.25, 99.31847
2353.732, 99.35725
2354.214, 99.41431
2354.696, 99.48228
2355.178, 99.5529
2355.661, 99.6182
2356.143, 99.67181
2356.625, 99.70966
2357.107, 99.73045
2357.589, 99.73499
2358.071, 99.72607
2358.553, 99.70694
2359.035, 99.68015
2359.518, 99.64706
2360.0, 99.60777
2360.482, 99.56148
2360.964, 99.50818
2361.446, 99.44922
2361.928, 99.38802
2362.41, 99.3288
2362.892, 99.27554
2363.375, 99.2302
2363.857, 99.19238
2364.339, 99.15943
2364.821, 99.12863
2365.303, 99.09937
2365.785, 99.07422
2366.267, 99.05904
2366.75, 99.06046
2367.232, 99.08324
2367.714, 99.12659
2368.196, 99.18385
2368.678, 99.2432
2369.16, 99.29122
2369.642, 99.31723
2370.124, 99.31639
2370.606, 99.29121
2371.089, 99.25021
2371.571, 99.20483
2372.053, 99.16612
2372.535, 99.14236
2373.017, 99.1382
2373.499, 99.15529
2373.981, 99.19334
2374.463, 99.25053
2374.946, 99.32375
2375.428, 99.40768
2375.91, 99.49454
2376.392, 99.57491
2376.874, 99.63998
2377.356, 99.68388
2377.838, 99.70569
2378.321, 99.70953
2378.802, 99.70265
2379.285, 99.69215
2379.767, 99.68234
2380.249, 99.67334
2380.731, 99.66265
2381.213, 99.64808
2381.695, 99.63071
2382.177, 99.61658
2382.66, 99.61525
2383.142, 99.63497
2383.624, 99.67831
2384.106, 99.7384
2384.588, 99.79939
2385.07, 99.84127
2385.552, 99.84647
2386.034, 99.80791
2386.517, 99.73238
2386.999, 99.6395
2387.481, 99.555
2387.963, 99.50163
2388.445, 99.49046
2388.927, 99.51638
2389.409, 99.55986
2389.891, 99.59349
2390.374, 99.59219
2390.856, 99.54266
2391.338, 99.44812
2391.82, 99.32822
2392.302, 99.21233
2392.784, 99.13013
2393.266, 99.10278
2393.749, 99.13643
2394.23, 99.22182
2394.713, 99.33785
2395.195, 99.45849
2395.677, 99.56049
2396.159, 99.62907
2396.641, 99.6604
2397.123, 99.65995
2397.605, 99.63895
2398.088, 99.60934
2398.57, 99.58045
2399.052, 99.55707
2399.534, 99.54025
2400.016, 99.5288
2400.498, 99.52131
2400.98, 99.51727
2401.462, 99.51644
2401.945, 99.51836
2402.427, 99.52098
2402.909, 99.52045
2403.391, 99.51211
2403.873, 99.49198
2404.355, 99.45908
2404.837, 99.41537
2405.319, 99.3662
2405.802, 99.31795
2406.284, 99.27563
2406.766, 99.24129
2407.248, 99.21317
2407.73, 99.18713
2408.212, 99.15855
2408.694, 99.12489
2409.177, 99.08737
2409.658, 99.05104
2410.141, 99.02356
2410.623, 99.01345
2411.105, 99.02786
2411.587, 99.07083
2412.069, 99.14278
2412.551, 99.23946
2413.033, 99.3532
2413.516, 99.47323
2413.998, 99.58746
2414.48, 99.68465
2414.962, 99.75687
2415.444, 99.80099
2415.926, 99.82014
2416.408, 99.8214
2416.89, 99.8139
2417.373, 99.80454
2417.855, 99.79444
2418.337, 99.77822
2418.819, 99.74538
2419.301, 99.68465
2419.783, 99.58938
2420.265, 99.46184
2420.747, 99.31438
2421.229, 99.16699
2421.712, 99.0422
2422.194, 98.95782
2422.676, 98.9229
2423.158, 98.93507
2423.64, 98.98306
2424.122, 99.05089
2424.604, 99.12373
2425.086, 99.1917
2425.569, 99.25227
2426.051, 99.30835
2426.533, 99.36565
2427.015, 99.42839
2427.497, 99.49696
2427.979, 99.566
2428.461, 99.62579
2428.944, 99.66428
2429.426, 99.66972
2429.908, 99.63425
2430.39, 99.55601
2430.872, 99.44086
2431.354, 99.30206
2431.836, 99.15849
2432.318, 99.03085
2432.801, 98.93753
2433.283, 98.88956
2433.765, 98.88849
2434.247, 98.92575
2434.729, 98.9859
2435.211, 99.05182
2435.693, 99.1097
2436.175, 99.1537
2436.657, 99.18618
2437.14, 99.21526
2437.622, 99.25008
2438.104, 99.29531
2438.586, 99.34827
2439.068, 99.39891
2439.55, 99.43298
2440.032, 99.43732
2440.514, 99.40531
2440.997, 99.33945
2441.479, 99.25108
2441.961, 99.15762
2442.443, 99.07703
2442.925, 99.02337
2443.407, 99.00353
2443.889, 99.01666
2444.372, 99.0555
2444.854, 99.10915
2445.336, 99.16647
2445.818, 99.21848
2446.3, 99.26015
2446.782, 99.29049
2447.264, 99.31174
2447.746, 99.32761
2448.229, 99.34156
2448.711, 99.35519
2449.193, 99.36777
2449.675, 99.37669
2450.157, 99.37926
2450.639, 99.37431
2451.121, 99.36316
2451.604, 99.35027
2452.085, 99.34124
2452.568, 99.34032
2453.05, 99.34801
2453.532, 99.35912
2454.014, 99.36353
2454.496, 99.34897
2454.978, 99.30451
2455.46, 99.22498
2455.943, 99.11304
2456.425, 98.97942
2456.907, 98.83986
2457.389, 98.71171
2457.871, 98.60922
2458.353, 98.54057
2458.835, 98.50667
2459.317, 98.50215
2459.8, 98.51754
2460.282, 98.54198
2460.764, 98.56601
2461.246, 98.58353
2461.728, 98.59219
2462.21, 98.59381
2462.692, 98.59277
2463.174, 98.59474
2463.656, 98.605
2464.139, 98.62637
2464.621, 98.65878
2465.103, 98.69887
2465.585, 98.74179
2466.067, 98.78312
2466.549, 98.82032
2467.031, 98.85477
2467.513, 98.89058
2467.996, 98.93279
2468.478, 98.98443
2468.96, 99.04451
2469.442, 99.10696
2469.924, 99.16235
2470.406, 99.20071
2470.888, 99.21622
2471.371, 99.20934
2471.853, 99.18786
2472.335, 99.16516
2472.817, 99.15608
2473.299, 99.17235
2473.781, 99.21915
2474.263, 99.29298
2474.745, 99.38249
2475.228, 99.4707
2475.71, 99.53912
2476.192, 99.57178
2476.674, 99.55909
2477.156, 99.50027
2477.638, 99.4049
2478.12, 99.29113
2478.602, 99.18326
2479.084, 99.1061
2479.567, 99.07901
2480.049, 99.11025
2480.531, 99.19376
2481.013, 99.3093
2481.495, 99.42703
2481.977, 99.51505
2482.459, 99.54818
2482.941, 99.51435
2483.424, 99.41732
2483.906, 99.27353
2484.388, 99.10642
2484.87, 98.93861
2485.352, 98.78674
2485.834, 98.65917
2486.316, 98.55835
2486.799, 98.48445
2487.281, 98.4392
2487.763, 98.42699
2488.245, 98.45395
2488.727, 98.52436
2489.209, 98.63704
2489.691, 98.7836
2490.173, 98.9498
2490.656, 99.11849
2491.138, 99.27396
2491.62, 99.4044
2492.102, 99.50304
2492.584, 99.56634
2493.066, 99.59233
2493.548, 99.57947
2494.03, 99.52782
2494.512, 99.4416
2494.995, 99.33189
2495.477, 99.21696
2495.959, 99.11951
2496.441, 99.06116
2496.923, 99.05571
2497.405, 99.10405
2497.887, 99.19385
2498.37, 99.30274
2498.852, 99.4055
2499.334, 99.48112
2499.816, 99.51875
2500.298, 99.51839
2500.78, 99.48841
2501.262, 99.44061
2501.744, 99.3861
2502.227, 99.33327
2502.709, 99.28931
2503.191, 99.26163
2503.673, 99.26019
2504.155, 99.29592
2504.637, 99.3774
2505.119, 99.50525
2505.601, 99.66898
2506.083, 99.84653
2506.566, 100.0087
2507.048, 100.1269
2507.53, 100.1818
2508.012, 100.1685
2508.494, 100.097
2508.976, 99.98733
2509.458, 99.86129
2509.94, 99.73545
2510.423, 99.61678
2510.905, 99.50361
2511.387, 99.39063
2511.869, 99.27453
2512.351, 99.15897
2512.833, 99.05499
2513.315, 98.97844
2513.798, 98.9446
2514.28, 98.96223
2514.762, 99.03057
2515.244, 99.13922
2515.726, 99.27043
2516.208, 99.40376
2516.69, 99.51949
2517.172, 99.60222
2517.655, 99.64202
2518.137, 99.63509
2518.619, 99.58393
2519.101, 99.49709
2519.583, 99.38847
2520.065, 99.27544
2520.547, 99.17556
2521.029, 99.10226
2521.511, 99.06082
2521.994, 99.04631
2522.476, 99.04446
2522.958, 99.03579
2523.44, 99.0024
2523.922, 98.93487
2524.404, 98.83681
2524.886, 98.72482
2525.368, 98.62492
2525.851, 98.56465
2526.333, 98.56505
2526.815, 98.63374
2527.297, 98.76287
2527.779, 98.93073
2528.261, 99.10693
2528.743, 99.26101
2529.226, 99.36909
2529.708, 99.41956
2530.19, 99.41447
2530.672, 99.36775
2531.154, 99.30032
2531.636, 99.23425
2532.118, 99.18736
2532.6, 99.1701
2533.083, 99.18385
2533.565, 99.22289
2534.047, 99.27598
2534.529, 99.33043
2535.011, 99.37424
2535.493, 99.39891
2535.975, 99.39993
2536.457, 99.37778
2536.939, 99.33726
2537.422, 99.28712
2537.904, 99.23839
2538.386, 99.20319
2538.868, 99.19172
2539.35, 99.21029
2539.832, 99.25903
2540.314, 99.33141
2540.796, 99.41502
2541.279, 99.49393
2541.761, 99.55241
2542.243, 99.57878
2542.725, 99.56765
2543.207, 99.52129
2543.689, 99.44733
2544.171, 99.35722
2544.654, 99.26229
2545.135, 99.1722
2545.618, 99.09341
2546.1, 99.02971
2546.582, 98.98256
2547.064, 98.95248
2547.546, 98.93857
2548.028, 98.93958
2548.51, 98.95341
2548.993, 98.97758
2549.475, 99.00981
2549.957, 99.04884
2550.439, 99.09412
2550.921, 99.14532
2551.403, 99.20043
2551.885, 99.25487
2552.367, 99.30066
2552.85, 99.32766
2553.332, 99.32598
2553.814, 99.2895
2554.296, 99.2178
2554.778, 99.117
2555.26, 98.99771
2555.742, 98.87193
2556.224, 98.74991
2556.707, 98.63779
2557.189, 98.5385
2557.671, 98.45319
2558.153, 98.38402
2558.635, 98.33563
2559.117, 98.31361
2559.599, 98.32224
2560.082, 98.36086
2560.563, 98.42122
2561.046, 98.48803
2561.528, 98.54253
2562.01, 98.56795
2562.492, 98.55499
2562.974, 98.50443
2563.456, 98.42702
2563.938, 98.33973
2564.421, 98.26041
2564.903, 98.20292
2565.385, 98.17503
2565.867, 98.17831
2566.349, 98.2103
2566.831, 98.26651
2567.313, 98.34206
2567.795, 98.43129
2568.278, 98.52623
2568.76, 98.61633
2569.242, 98.68906
2569.724, 98.73257
2570.206, 98.74004
2570.688, 98.71265
2571.17, 98.66093
2571.652, 98.60278
2572.135, 98.5584
2572.617, 98.54412
2573.099, 98.56765
2573.581, 98.62521
2574.063, 98.70324
2574.545, 98.7824
2575.027, 98.84364
2575.51, 98.87395
2575.991, 98.86951
2576.474, 98.83652
2576.956, 98.78909
2577.438, 98.74543
2577.92, 98.7225
2578.402, 98.73278
2578.884, 98.78103
2579.366, 98.86382
2579.849, 98.9701
2580.331, 99.08378
2580.813, 99.18704
2581.295, 99.26399
2581.777, 99.30383
2582.259, 99.30289
2582.741, 99.2649
2583.223, 99.19994
2583.706, 99.12135
2584.188, 99.04249
2584.67, 98.97385
2585.152, 98.92062
2585.634, 98.88285
2586.116, 98.85641
2586.598, 98.83537
2587.08, 98.81481
2587.563, 98.79312
2588.045, 98.77343
2588.527, 98.76247
2589.009, 98.76861
2589.491, 98.79869
2589.973, 98.85458
2590.455, 98.93157
2590.938, 99.01833
2591.419, 99.09943
2591.902, 99.15958
2592.384, 99.188
2592.866, 99.18169
2593.348, 99.14615
2593.83, 99.09308
2594.312, 99.03622
2594.794, 98.9863
2595.277, 98.94814
2595.759, 98.91918
2596.241, 98.89223
2596.723, 98.85925
2597.205, 98.81522
2597.687, 98.7615
2598.169, 98.70576
2598.651, 98.65957
2599.134, 98.63459
2599.616, 98.63884
2600.098, 98.67419
2600.58, 98.73577
2601.062, 98.81364
2601.544, 98.89496
2602.026, 98.96721
2602.508, 99.01993
2602.99, 99.04655
2603.473, 99.04494
2603.955, 99.01772
2604.437, 98.97187
2604.919, 98.91798
2605.401, 98.86789
2605.883, 98.83276
2606.365, 98.81999
2606.847, 98.83126
2607.33, 98.8618
2607.812, 98.9019
2608.294, 98.93987
2608.776, 98.96574
2609.258, 98.97474
2609.74, 98.96832
2610.222, 98.95359
2610.705, 98.94049
2611.187, 98.93814
2611.669, 98.95194
2612.151, 98.98217
2612.633, 99.02408
2613.115, 99.06998
2613.597, 99.11102
2614.079, 99.13958
2614.562, 99.15
2615.044, 99.13897
2615.526, 99.10525
2616.008, 99.04942
2616.49, 98.97426
2616.972, 98.8845
2617.454, 98.78738
2617.936, 98.692
2618.418, 98.60809
2618.901, 98.54468
2619.383, 98.50806
2619.865, 98.50076
2620.347, 98.52112
2620.829, 98.56342
2621.311, 98.61921
2621.793, 98.67866
2622.276, 98.73179
2622.758, 98.76979
2623.24, 98.78561
2623.722, 98.77454
2624.204, 98.73461
2624.686, 98.66627
2625.168, 98.57314
2625.65, 98.46117
2626.133, 98.33846
2626.615, 98.21429
2627.097, 98.09753
2627.579, 97.99512
2628.061, 97.91056
2628.543, 97.84296
2629.025, 97.78685
2629.507, 97.73343
2629.99, 97.6728
2630.472, 97.59696
2630.954, 97.50261
2631.436, 97.39251
2631.918, 97.2752
2632.4, 97.16275
2632.882, 97.06734
2633.364, 96.99771
2633.846, 96.95692
2634.329, 96.94189
2634.811, 96.94554
2635.293, 96.95998
2635.775, 96.97936
2636.257, 97.00207
2636.739, 97.03039
2637.221, 97.06823
2637.704, 97.11836
2638.186, 97.18008
2638.668, 97.24834
2639.15, 97.31525
2639.632, 97.3727
2640.114, 97.41504
2640.596, 97.44108
2641.078, 97.45392
2641.561, 97.45866
2642.043, 97.46004
2642.525, 97.45981
2643.007, 97.45583
2643.489, 97.44327
2643.971, 97.41643
2644.453, 97.37133
2644.935, 97.30793
2645.417, 97.22998
2645.9, 97.14405
2646.382, 97.05774
2646.864, 96.97739
2647.346, 96.90715
2647.828, 96.84844
2648.31, 96.801
2648.792, 96.76373
2649.274, 96.73582
2649.757, 96.71719
2650.239, 96.70828
2650.721, 96.70998
2651.203, 96.7227
2651.685, 96.74601
2652.167, 96.77872
2652.649, 96.81895
2653.132, 96.86455
2653.614, 96.91294
2654.096, 96.96175
2654.578, 97.00879
2655.06, 97.05251
2655.542, 97.09152
2656.024, 97.125
2656.506, 97.15249
2656.989, 97.17358
2657.471, 97.18813
2657.953, 97.19574
2658.435, 97.1964
2658.917, 97.18993
2659.399, 97.1767
2659.881, 97.15758
2660.363, 97.13351
2660.845, 97.10557
2661.328, 97.0743
2661.81, 97.03975
2662.292, 97.00149
2662.774, 96.9591
2663.256, 96.91254
2663.738, 96.86335
2664.22, 96.81482
2664.702, 96.77184
2665.185, 96.74026
2665.667, 96.72583
2666.149, 96.73215
2666.631, 96.76016
2667.113, 96.80721
2667.595, 96.86752
2668.077, 96.93417
2668.56, 97.00054
2669.042, 97.0628
2669.524, 97.1211
2670.006, 97.17943
2670.488, 97.24416
2670.97, 97.32182
2671.452, 97.41595
2671.934, 97.52577
2672.417, 97.64534
2672.899, 97.76481
2673.381, 97.87366
2673.863, 97.9631
2674.345, 98.02888
2674.827, 98.07217
2675.309, 98.09866
2675.791, 98.11666
2676.273, 98.13404
2676.756, 98.15659
2677.238, 98.1862
2677.72, 98.22123
2678.202, 98.25709
2678.684, 98.28758
2679.166, 98.30623
2679.648, 98.30726
2680.13, 98.28691
2680.613, 98.24426
2681.095, 98.18245
2681.577, 98.10863
2682.059, 98.0339
2682.541, 97.97117
2683.023, 97.93241
2683.505, 97.92517
2683.988, 97.95023
2684.469, 98.00034
2684.952, 98.06184
2685.434, 98.11777
2685.916, 98.15247
2686.398, 98.15563
2686.88, 98.12465
2687.362, 98.06509
2687.844, 97.98835
2688.327, 97.90861
2688.809, 97.83937
2689.291, 97.79081
2689.773, 97.7685
2690.255, 97.77332
2690.737, 97.80214
2691.219, 97.84901
2691.701, 97.90623
2692.184, 97.96553
2692.666, 98.01916
2693.148, 98.06141
2693.63, 98.08885
2694.112, 98.10103
2694.594, 98.09982
2695.076, 98.08867
2695.558, 98.07145
2696.041, 98.05166
2696.523, 98.0324
2697.005, 98.01657
2697.487, 98.00776
2697.969, 98.00934
2698.451, 98.02414
2698.933, 98.05251
2699.416, 98.09097
2699.897, 98.1321
2700.38, 98.16558
2700.862, 98.18123
2701.344, 98.17264
2701.826, 98.13976
2702.308, 98.08937
2702.79, 98.03335
2703.272, 97.98439
2703.755, 97.95164
2704.237, 97.93784
2704.719, 97.93884
2705.201, 97.94577
2705.683, 97.94868
2706.165, 97.94018
2706.647, 97.91788
2707.129, 97.88361
2707.612, 97.84177
2708.094, 97.79631
2708.576, 97.7495
2709.058, 97.70135
2709.54, 97.65151
2710.022, 97.60101
2710.504, 97.55357
2710.986, 97.51537
2711.469, 97.49286
2711.951, 97.4904
2712.433, 97.50807
2712.915, 97.54153
2713.397, 97.58318
2713.879, 97.62558
2714.361, 97.66373
2714.844, 97.69736
2715.325, 97.72997
2715.808, 97.76749
2716.29, 97.8154
2716.772, 97.87664
2717.254, 97.95044
2717.736, 98.03319
2718.218, 98.11967
2718.7, 98.20484
2719.183, 98.28506
2719.665, 98.35774
2720.147, 98.42138
2720.629, 98.47474
2721.111, 98.51624
2721.593, 98.54473
2722.075, 98.55988
2722.557, 98.56305
2723.04, 98.55714
2723.522, 98.54653
2724.004, 98.53532
2724.486, 98.52656
2724.968, 98.52061
2725.45, 98.51572
2725.932, 98.50798
2726.414, 98.4934
2726.896, 98.46895
2727.379, 98.43394
2727.861, 98.39065
2728.343, 98.34396
2728.825, 98.3001
2729.307, 98.26501
2729.789, 98.2428
2730.271, 98.23491
2730.753, 98.23915
2731.236, 98.25113
2731.718, 98.26479
2732.2, 98.27443
2732.682, 98.27563
2733.164, 98.26644
2733.646, 98.24671
2734.128, 98.21761
2734.611, 98.181
2735.093, 98.13824
2735.575, 98.09054
2736.057, 98.03913
2736.539, 97.98557
2737.021, 97.93239
2737.503, 97.88247
2737.985, 97.83854
2738.468, 97.80277
2738.95, 97.77573
2739.432, 97.75645
2739.914, 97.74329
2740.396, 97.73454
2740.878, 97.7292
2741.36, 97.72695
2741.842, 97.72827
2742.324, 97.73367
2742.807, 97.74353
2743.289, 97.75778
2743.771, 97.77621
2744.253, 97.79886
2744.735, 97.82582
2745.217, 97.85681
2745.699, 97.8905
2746.182, 97.9241
2746.664, 97.95376
2747.146, 97.97571
2747.628, 97.98814
2748.11, 97.99249
2748.592, 97.99376
2749.074, 97.99927
2749.556, 98.01582
2750.039, 98.04649
2750.521, 98.08862
2751.003, 98.1337
2751.485, 98.16997
2751.967, 98.18573
2752.449, 98.1741
2752.931, 98.1348
2753.413, 98.07462
2753.896, 98.00465
2754.378, 97.93689
2754.86, 97.88084
2755.342, 97.84182
2755.824, 97.82115
2756.306, 97.81812
2756.788, 97.8315
2757.27, 97.86068
2757.752, 97.90523
2758.235, 97.96304
2758.717, 98.02945
2759.199, 98.0966
2759.681, 98.15504
2760.163, 98.19648
2760.645, 98.21648
2761.127, 98.21629
2761.61, 98.2018
2762.092, 98.18147
2762.574, 98.16214
2763.056, 98.14678
2763.538, 98.13274
2764.02, 98.11362
2764.502, 98.08173
2764.984, 98.03223
2765.467, 97.96516
2765.949, 97.88634
2766.431, 97.80549
2766.913, 97.73332
2767.395, 97.67799
2767.877, 97.6431
2768.359, 97.6266
2768.841, 97.62193
2769.323, 97.61973
2769.806, 97.61083
2770.288, 97.58817
2770.77, 97.54887
2771.252, 97.49485
2771.734, 97.43195
2772.216, 97.36945
2772.698, 97.31733
2773.18, 97.28433
2773.663, 97.27544
2774.145, 97.29108
2774.627, 97.32639
2775.109, 97.37265
2775.591, 97.42001
2776.073, 97.45935
2776.555, 97.48499
2777.038, 97.49525
2777.52, 97.49234
2778.002, 97.48013
2778.484, 97.46264
2778.966, 97.44144
2779.448, 97.41568
2779.93, 97.38245
2780.412, 97.33847
2780.895, 97.28203
2781.377, 97.21493
2781.859, 97.14281
2782.341, 97.0743
2782.823, 97.01911
2783.305, 96.98507
2783.787, 96.97561
2784.269, 96.9882
2784.751, 97.01445
2785.234, 97.04177
2785.716, 97.05631
2786.198, 97.04687
2786.68, 97.00793
2787.162, 96.94108
2787.644, 96.85456
2788.126, 96.76058
2788.608, 96.6712
2789.091, 96.59507
2789.573, 96.5349
2790.055, 96.48723
2790.537, 96.44428
2791.019, 96.39684
2791.501, 96.33755
2791.983, 96.26281
2792.466, 96.17319
2792.948, 96.07214
2793.43, 95.96428
2793.912, 95.85341
2794.394, 95.74161
2794.876, 95.62962
2795.358, 95.51749
2795.84, 95.40533
2796.323, 95.29353
2796.805, 95.18247
2797.287, 95.07121
2797.769, 94.95722
2798.251, 94.83667
2798.733, 94.70576
2799.215, 94.56265
2799.697, 94.40946
2800.179, 94.25309
2800.662, 94.10391
2801.144, 93.97414
2801.626, 93.87443
2802.108, 93.81116
2802.59, 93.78469
2803.072, 93.78938
2803.554, 93.81514
2804.036, 93.84996
2804.519, 93.88291
2805.001, 93.90614
2805.483, 93.91621
2805.965, 93.91433
2806.447, 93.90511
2806.929, 93.89487
2807.411, 93.88967
2807.894, 93.89391
2808.375, 93.90832
2808.858, 93.92999
2809.34, 93.952
2809.822, 93.96461
2810.304, 93.95694
2810.786, 93.9184
2811.268, 93.84069
2811.75, 93.71858
2812.233, 93.55038
2812.715, 93.33679
2813.197, 93.08028
2813.679, 92.78301
2814.161, 92.44631
2814.643, 92.06902
2815.125, 91.64824
2815.607, 91.17903
2816.09, 90.65599
2816.572, 90.07363
2817.054, 89.42844
2817.536, 88.71952
2818.018, 87.95016
2818.5, 87.12797
2818.982, 86.26569
2819.464, 85.38033
2819.947, 84.49239
2820.429, 83.62393
2820.911, 82.79744
2821.393, 82.03373
2821.875, 81.35117
2822.357, 80.76524
2822.839, 80.28811
2823.322, 79.92909
2823.803, 79.69479
2824.286, 79.5888
2824.768, 79.61084
2825.25, 79.75586
2825.732, 80.01255
2826.214, 80.36277
2826.696, 80.78214
2827.178, 81.24184
2827.661, 81.71208
2828.143, 82.16578
2828.625, 82.58213
2829.107, 82.94839
2829.589, 83.25994
2830.071, 83.5174
2830.553, 83.72347
2831.035, 83.8793
2831.518, 83.98219
2832.0, 84.0248
2832.482, 83.99729
2832.964, 83.88873
2833.446, 83.68986
2833.928, 83.39357
2834.41, 82.99516
2834.892, 82.49035
2835.375, 81.87418
2835.857, 81.13953
2836.339, 80.27691
2836.821, 79.27512
2837.303, 78.12231
2837.785, 76.80671
2838.267, 75.31754
2838.75, 73.64563
2839.231, 71.78519
2839.714, 69.73537
2840.196, 67.50364
2840.678, 65.10797
2841.16, 62.5787
2841.642, 59.95784
2842.124, 57.29698
2842.606, 54.6531
2843.089, 52.08442
2843.571, 49.64644
2844.053, 47.38934
2844.535, 45.3564
2845.017, 43.58332
2845.499, 42.0974
2845.981, 40.91733
2846.463, 40.0522
2846.946, 39.5012
2847.428, 39.25356
2847.91, 39.28913
2848.392, 39.57962
2848.874, 40.09061
2849.356, 40.78357
2849.838, 41.61802
2850.32, 42.5536
2850.802, 43.55146
2851.285, 44.5755
2851.767, 45.59394
2852.249, 46.5801
2852.731, 47.51408
2853.213, 48.38332
2853.695, 49.18314
2854.177, 49.91548
2854.659, 50.58792
2855.142, 51.21135
2855.624, 51.79855
2856.106, 52.36291
2856.588, 52.91822
2857.07, 53.4785
2857.552, 54.05786
2858.034, 54.67022
2858.517, 55.32821
2858.999, 56.04179
2859.481, 56.8172
2859.963, 57.65644
2860.445, 58.55722
2860.927, 59.5133
2861.409, 60.51546
2861.891, 61.55217
2862.374, 62.60993
2862.856, 63.67379
2863.338, 64.72798
2863.82, 65.75695
2864.302, 66.74661
2864.784, 67.68561
2865.266, 68.56608
2865.748, 69.38391
2866.23, 70.13747
2866.713, 70.82681
2867.195, 71.45176
2867.677, 72.01147
2868.159, 72.50411
2868.641, 72.92707
2869.123, 73.27796
2869.605, 73.55479
2870.088, 73.75614
2870.57, 73.88137
2871.052, 73.93021
2871.534, 73.9028
2872.016, 73.80045
2872.498, 73.62522
2872.98, 73.38031
2873.462, 73.06896
2873.945, 72.69376
2874.427, 72.25532
2874.909, 71.75168
2875.391, 71.17894
2875.873, 70.53214
2876.355, 69.80673
2876.837, 68.99996
2877.319, 68.11143
2877.802, 67.14303
2878.284, 66.09844
2878.766, 64.98314
2879.248, 63.80418
2879.73, 62.57138
2880.212, 61.29762
2880.694, 59.99913
2881.176, 58.69448
2881.658, 57.4025
2882.141, 56.14001
2882.623, 54.91982
2883.105, 53.74963
2883.587, 52.63277
2884.069, 51.56917
2884.551, 50.5572
2885.033, 49.59471
2885.516, 48.67938
2885.998, 47.80795
2886.48, 46.97536
2886.962, 46.17396
2887.444, 45.39366
2887.926, 44.62296
2888.408, 43.85052
2888.89, 43.06697
2889.373, 42.26587
2889.855, 41.44411
2890.337, 40.60143
2890.819, 39.73939
2891.301, 38.86084
2891.783, 37.9696
2892.265, 37.07088
2892.747, 36.17174
2893.229, 35.28183
2893.712, 34.41341
2894.194, 33.58086
2894.676, 32.79942
2895.158, 32.08353
2895.64, 31.44516
2896.122, 30.89223
2896.604, 30.42754
2897.086, 30.04838
2897.569, 29.74677
2898.051, 29.51064
2898.533, 29.32525
2899.015, 29.17536
2899.497, 29.047
2899.979, 28.92896
2900.461, 28.81373
2900.944, 28.69765
2901.426, 28.58032
2901.908, 28.46401
2902.39, 28.35265
2902.872, 28.25138
2903.354, 28.16611
2903.836, 28.10328
2904.318, 28.06976
2904.801, 28.07247
2905.283, 28.11821
2905.765, 28.21291
2906.247, 28.36126
2906.729, 28.56633
2907.211, 28.82934
2907.693, 29.14941
2908.175, 29.52376
2908.657, 29.94795
2909.14, 30.41599
2909.622, 30.92084
2910.104, 31.45464
2910.586, 32.00894
2911.068, 32.57469
2911.55, 33.14226
2912.032, 33.70106
2912.514, 34.23959
2912.997, 34.74575
2913.479, 35.20758
2913.961, 35.61434
2914.443, 35.95816
2914.925, 36.23487
2915.407, 36.44466
2915.889, 36.59148
2916.372, 36.68242
2916.854, 36.72596
2917.336, 36.73101
2917.818, 36.70636
2918.3, 36.66037
2918.782, 36.60092
2919.264, 36.53578
2919.746, 36.47164
2920.229, 36.4138
2920.711, 36.36491
2921.193, 36.32487
2921.675, 36.29091
2922.157, 36.25916
2922.639, 36.22635
2923.121, 36.19181
2923.603, 36.15868
2924.085, 36.13403
2924.568, 36.12796
2925.05, 36.15201
2925.532, 36.21756
2926.014, 36.33471
2926.496, 36.51156
2926.978, 36.75463
2927.46, 37.06853
2927.942, 37.45628
2928.425, 37.91824
2928.907, 38.45173
2929.389, 39.04992
2929.871, 39.70187
2930.353, 40.39296
2930.835, 41.10671
2931.317, 41.82657
2931.8, 42.53834
2932.281, 43.23152
2932.764, 43.90019
2933.246, 44.54256
2933.728, 45.16026
2934.21, 45.75687
2934.692, 46.33736
2935.174, 46.90681
2935.656, 47.47041
2936.139, 48.03279
2936.621, 48.59798
2937.103, 49.16858
2937.585, 49.74569
2938.067, 50.32832
2938.549, 50.91332
2939.031, 51.49567
2939.513, 52.06888
2939.996, 52.62555
2940.478, 53.15792
2940.96, 53.65807
2941.442, 54.11837
2941.924, 54.53137
2942.406, 54.89004
2942.888, 55.18817
2943.37, 55.4211
2943.853, 55.58644
2944.335, 55.68567
2944.817, 55.72435
2945.299, 55.71301
2945.781, 55.66617
2946.263, 55.60113
2946.745, 55.53553
2947.228, 55.48505
2947.709, 55.46135
2948.192, 55.47098
2948.674, 55.5153
2949.156, 55.59179
2949.638, 55.69577
2950.12, 55.82236
2950.602, 55.96791
2951.084, 56.13036
2951.567, 56.30919
2952.049, 56.50452
2952.531, 56.71666
2953.013, 56.94567
2953.495, 57.19172
2953.977, 57.45583
2954.459, 57.74002
2954.941, 58.04799
2955.424, 58.38436
2955.906, 58.75446
2956.388, 59.16329
2956.87, 59.61531
2957.352, 60.11411
2957.834, 60.66219
2958.316, 61.26094
2958.798, 61.91011
2959.281, 62.60722
2959.763, 63.34732
2960.245, 64.12312
2960.727, 64.92609
2961.209, 65.74813
2961.691, 66.58335
2962.173, 67.42915
2962.656, 68.28617
2963.137, 69.15652
2963.62, 70.04169
2964.102, 70.94007
2964.584, 71.84586
2965.066, 72.74965
2965.548, 73.64048
2966.03, 74.50854
2966.512, 75.34762
2966.995, 76.15565
2967.477, 76.93359
2967.959, 77.68293
2968.441, 78.40327
2968.923, 79.09113
2969.405, 79.74014
2969.887, 80.34394
2970.369, 80.89932
2970.852, 81.40842
2971.334, 81.87949
2971.816, 82.3246
2972.298, 82.7562
2972.78, 83.18269
2973.262, 83.6057
2973.744, 84.01943
2974.226, 84.41309
2974.708, 84.77456
2975.191, 85.0947
2975.673, 85.3699
2976.155, 85.60321
2976.637, 85.80169
2977.119, 85.97397
2977.601, 86.12654
2978.083, 86.26247
2978.565, 86.38185
2979.048, 86.48386
2979.53, 86.56938
2980.012, 86.64326
2980.494, 86.71408
2980.976, 86.7925
2981.458, 86.8877
2981.94, 87.00498
2982.423, 87.14393
2982.905, 87.29898
2983.387, 87.46249
2983.869, 87.62835
2984.351, 87.79499
2984.833, 87.96603
2985.315, 88.1489
2985.797, 88.35107
2986.28, 88.5761
2986.762, 88.82074
2987.244, 89.07454
2987.726, 89.32266
2988.208, 89.55026
2988.69, 89.74729
2989.172, 89.91216
2989.654, 90.05196
2990.136, 90.18068
2990.619, 90.31499
2991.101, 90.46948
2991.583, 90.6533
2992.065, 90.86787
2992.547, 91.10803
2993.029, 91.36299
2993.511, 91.61981
2993.994, 91.86574
2994.476, 92.09078
2994.958, 92.28885
2995.44, 92.45863
2995.922, 92.60365
2996.404, 92.7307
2996.886, 92.84888
2997.368, 92.96707
2997.851, 93.09214
2998.333, 93.22734
2998.815, 93.37195
2999.297, 93.5223
2999.779, 93.67297
3000.261, 93.81939
3000.743, 93.95876
3001.225, 94.0915
3001.708, 94.22013
3002.19, 94.34859
3002.672, 94.48061
3003.154, 94.61876
3003.636, 94.76367
3004.118, 94.91444
3004.6, 95.06821
3005.082, 95.22069
3005.564, 95.36634
3006.047, 95.49905
3006.529, 95.61298
3007.011, 95.70398
3007.493, 95.77082
3007.975, 95.81616
3008.457, 95.84605
3008.939, 95.86864
3009.422, 95.89155
3009.904, 95.92025
3010.386, 95.9562
3010.868, 95.99741
3011.35, 96.04002
3011.832, 96.07978
3012.314, 96.11381
3012.796, 96.141
3013.279, 96.16075
3013.761, 96.17184
3014.243, 96.17113
3014.725, 96.15411
3015.207, 96.11602
3015.689, 96.05431
3016.171, 95.97012
3016.653, 95.86929
3017.135, 95.75974
3017.618, 95.64998
3018.1, 95.54562
3018.582, 95.44828
3019.064, 95.35592
3019.546, 95.26521
3020.028, 95.17391
3020.51, 95.08252
3020.992, 94.99438
3021.475, 94.91385
3021.957, 94.84361
3022.439, 94.78293
3022.921, 94.7273
3023.403, 94.67055
3023.885, 94.60773
3024.367, 94.53821
3024.85, 94.46684
3025.332, 94.40289
3025.814, 94.35715
3026.296, 94.33786
3026.778, 94.34873
3027.26, 94.38751
3027.742, 94.44829
3028.224, 94.52378
3028.707, 94.60903
3029.189, 94.7026
3029.671, 94.80659
3030.153, 94.92471
3030.635, 95.05943
3031.117, 95.20985
3031.599, 95.3709
3032.081, 95.53416
3032.563, 95.68943
3033.046, 95.82758
3033.528, 95.94158
3034.01, 96.02783
3034.492, 96.08614
3034.974, 96.11893
3035.456, 96.13023
3035.938, 96.12514
3036.42, 96.10894
3036.903, 96.08662
3037.385, 96.06248
3037.867, 96.0398
3038.349, 96.02051
3038.831, 96.00497
3039.313, 95.99235
3039.795, 95.98077
3040.278, 95.96773
3040.76, 95.95031
3041.242, 95.92611
3041.724, 95.89356
3042.206, 95.85261
3042.688, 95.80502
3043.17, 95.7547
3043.652, 95.70673
3044.135, 95.66616
3044.617, 95.63652
3045.099, 95.61821
3045.581, 95.60806
3046.063, 95.6003
3046.545, 95.5883
3047.027, 95.56757
3047.509, 95.53775
3047.991, 95.50353
3048.474, 95.47352
3048.956, 95.45724
3049.438, 95.4615
3049.92, 95.48726
3050.402, 95.52835
3050.884, 95.57261
3051.366, 95.60513
3051.848, 95.61259
3052.331, 95.58698
3052.813, 95.52811
3053.295, 95.44334
3053.777, 95.34518
3054.259, 95.24796
3054.741, 95.16331
3055.223, 95.09808
3055.706, 95.0528
3056.188, 95.02183
3056.67, 94.99585
3057.152, 94.96406
3057.634, 94.91722
3058.116, 94.84979
3058.598, 94.7613
3059.08, 94.65677
3059.563, 94.5459
3060.045, 94.44099
3060.527, 94.35503
3061.009, 94.29845
3061.491, 94.27717
3061.973, 94.2912
3062.455, 94.33456
3062.937, 94.39668
3063.419, 94.46506
3063.902, 94.52823
3064.384, 94.57883
3064.866, 94.61524
3065.348, 94.64204
3065.83, 94.66831
3066.312, 94.70506
3066.794, 94.76189
3067.276, 94.84401
3067.759, 94.95063
3068.241, 95.07481
3068.723, 95.20511
3069.205, 95.32861
3069.687, 95.43417
3070.169, 95.51498
3070.651, 95.57074
3071.134, 95.60714
3071.615, 95.63456
3072.098, 95.66501
3072.58, 95.70947
3073.062, 95.77472
3073.544, 95.8624
3074.026, 95.96805
3074.508, 96.0834
3074.99, 96.19763
3075.473, 96.30093
3075.955, 96.38628
3076.437, 96.45181
3076.919, 96.50053
3077.401, 96.53983
3077.883, 96.57941
3078.365, 96.62891
3078.847, 96.69508
3079.33, 96.78056
3079.812, 96.88232
3080.294, 96.99246
3080.776, 97.09933
3081.258, 97.18992
3081.74, 97.25251
3082.222, 97.27972
3082.704, 97.27034
3083.187, 97.23086
3083.669, 97.17467
3084.151, 97.11961
3084.633, 97.08415
3085.115, 97.08311
3085.597, 97.12286
3086.079, 97.19942
3086.562, 97.29836
3087.043, 97.39827
3087.526, 97.47604
3088.008, 97.51369
3088.49, 97.50328
3088.972, 97.44981
3089.454, 97.36918
3089.936, 97.28369
3090.418, 97.21555
3090.901, 97.18089
3091.383, 97.18616
3091.865, 97.22866
3092.347, 97.29855
3092.829, 97.38377
3093.311, 97.47338
3093.793, 97.56085
3094.275, 97.64343
3094.758, 97.72115
3095.24, 97.79487
3095.722, 97.86471
3096.204, 97.93023
3096.686, 97.99107
3097.168, 98.04757
3097.65, 98.10133
3098.132, 98.15381
3098.615, 98.20533
3099.097, 98.25322
3099.579, 98.29234
3100.061, 98.31612
3100.543, 98.31933
3101.025, 98.30052
3101.507, 98.26326
3101.99, 98.21527
3102.471, 98.16611
3102.954, 98.12345
3103.436, 98.09095
3103.918, 98.06735
3104.4, 98.04852
3104.882, 98.02995
3105.364, 98.01019
3105.846, 97.99278
3106.329, 97.98542
3106.811, 97.99794
3107.293, 98.03854
3107.775, 98.11033
3108.257, 98.20959
3108.739, 98.32568
3109.221, 98.44373
3109.703, 98.54705
3110.186, 98.62149
3110.668, 98.65806
3111.15, 98.6551
3111.632, 98.61834
3112.114, 98.55993
3112.596, 98.49578
3113.078, 98.44264
3113.56, 98.41362
3114.042, 98.41593
3114.525, 98.44926
3115.007, 98.50601
3115.489, 98.57396
3115.971, 98.64054
3116.453, 98.69627
3116.935, 98.73743
3117.417, 98.7662
3117.9, 98.7884
3118.382, 98.80997
3118.864, 98.83337
3119.346, 98.85597
3119.828, 98.87082
3120.31, 98.8693
3120.792, 98.84524
3121.274, 98.79752
3121.757, 98.73148
3122.239, 98.65749
3122.721, 98.58782
3123.203, 98.53272
3123.685, 98.4977
3124.167, 98.48228
3124.649, 98.48066
3125.131, 98.48449
3125.614, 98.48482
3126.096, 98.47477
3126.578, 98.45107
3127.06, 98.41477
3127.542, 98.37066
3128.024, 98.32708
3128.506, 98.29441
3128.988, 98.28351
3129.47, 98.30345
3129.953, 98.35942
3130.435, 98.45076
3130.917, 98.57007
3131.399, 98.70438
3131.881, 98.8372
3132.363, 98.95255
3132.845, 99.03859
3133.328, 99.09055
3133.81, 99.11082
3134.292, 99.10851
3134.774, 99.09489
3135.256, 99.08054
3135.738, 99.07193
3136.22, 99.06989
3136.702, 99.07024
3137.185, 99.06651
3137.667, 99.05279
3138.149, 99.02662
3138.631, 98.99054
3139.113, 98.95141
3139.595, 98.91802
3140.077, 98.89852
3140.559, 98.89641
3141.042, 98.91018
3141.524, 98.93292
3142.006, 98.95494
3142.488, 98.96728
3142.97, 98.96484
3143.452, 98.9486
3143.934, 98.92513
3144.417, 98.90413
3144.898, 98.89506
3145.381, 98.90349
3145.863, 98.92928
3146.345, 98.96696
3146.827, 99.00771
3147.309, 99.04235
3147.791, 99.06476
3148.273, 99.07285
3148.756, 99.06872
3149.238, 99.05652
3149.72, 99.04091
3150.202, 99.0256
3150.684, 99.01267
3151.166, 99.00376
3151.648, 99.0002
3152.13, 99.00351
3152.613, 99.01484
3153.095, 99.03362
3153.577, 99.05676
3154.059, 99.0778
3154.541, 99.08899
3155.023, 99.08295
3155.505, 99.05566
3155.987, 99.0077
3156.469, 98.94523
3156.952, 98.8776
3157.434, 98.8153
3157.916, 98.76707
3158.398, 98.73811
3158.88, 98.73009
3159.362, 98.74108
3159.844, 98.76706
3160.326, 98.80312
3160.809, 98.84367
3161.291, 98.88349
3161.773, 98.91782
3162.255, 98.94347
3162.737, 98.96006
3163.219, 98.97068
3163.701, 98.98153
3164.184, 99.00041
3164.666, 99.03388
3165.148, 99.08446
3165.63, 99.1486
3166.112, 99.21686
3166.594, 99.27623
3167.076, 99.3138
3167.558, 99.32067
3168.041, 99.29461
3168.523, 99.23959
3169.005, 99.16474
3169.487, 99.0804
3169.969, 98.99552
3170.451, 98.91585
3170.933, 98.84408
3171.415, 98.78127
3171.897, 98.72832
3172.38, 98.6868
3172.862, 98.65909
3173.344, 98.64662
3173.826, 98.6488
3174.308, 98.66181
3174.79, 98.67944
3175.272, 98.69401
3175.754, 98.69872
3176.237, 98.68907
3176.719, 98.66452
3177.201, 98.62825
3177.683, 98.58672
3178.165, 98.54833
3178.647, 98.52233
3179.129, 98.51685
3179.612, 98.53781
3180.094, 98.58712
3180.576, 98.66181
3181.058, 98.75378
3181.54, 98.85094
3182.022, 98.93963
3182.504, 99.00777
3182.986, 99.04803
3183.469, 99.05978
3183.951, 99.04868
3184.433, 99.02517
3184.915, 99.00041
3185.397, 98.98399
3185.879, 98.98141
3186.361, 98.99462
3186.843, 99.02323
3187.325, 99.06667
3187.808, 99.12531
3188.29, 99.2008
3188.772, 99.29388
3189.254, 99.40266
3189.736, 99.52048
3190.218, 99.63615
3190.7, 99.73512
3191.182, 99.8038
3191.665, 99.83244
3192.147, 99.81812
3192.629, 99.76546
3193.111, 99.68472
3193.593, 99.58888
3194.075, 99.49015
3194.557, 99.39776
3195.04, 99.31664
3195.521, 99.24849
3196.004, 99.19283
3196.486, 99.14958
3196.968, 99.11934
3197.45, 99.1041
3197.932, 99.10668
3198.414, 99.12915
3198.896, 99.17177
3199.379, 99.23226
3199.861, 99.30565
3200.343, 99.38445
3200.825, 99.45997
3201.307, 99.52341
3201.789, 99.56725
3202.271, 99.58652
3202.753, 99.57954
3203.236, 99.54803
3203.718, 99.49653
3204.2, 99.43114
3204.682, 99.35839
3205.164, 99.28353
3205.646, 99.21024
3206.128, 99.14053
3206.61, 99.07533
3207.093, 99.01523
3207.575, 98.96117
3208.057, 98.91435
3208.539, 98.87584
3209.021, 98.84557
3209.503, 98.82249
3209.985, 98.80424
3210.468, 98.7883
3210.949, 98.77348
3211.432, 98.76061
3211.914, 98.75301
3212.396, 98.75572
3212.878, 98.77304
3213.36, 98.80686
3213.842, 98.85462
3214.324, 98.9092
3214.807, 98.96092
3215.289, 99.00013
3215.771, 99.02068
3216.253, 99.02216
3216.735, 99.01024
3217.217, 98.99525
3217.699, 98.98798
3218.181, 98.9968
3218.664, 99.02441
3219.146, 99.06713
3219.628, 99.11627
3220.11, 99.16135
3220.592, 99.19293
3221.074, 99.20562
3221.556, 99.19858
3222.038, 99.17551
3222.521, 99.1428
3223.003, 99.10804
3223.485, 99.07836
3223.967, 99.06043
3224.449, 99.05929
3224.931, 99.07809
3225.413, 99.11689
3225.896, 99.17135
3226.377, 99.2321
3226.86, 99.28575
3227.342, 99.31732
3227.824, 99.31467
3228.306, 99.27237
3228.788, 99.19456
3229.27, 99.0949
3229.752, 98.9927
3230.235, 98.90809
3230.717, 98.85593
3231.199, 98.84226
3231.681, 98.86394
3232.163, 98.9116
3232.645, 98.97501
3233.127, 99.04721
3233.609, 99.12729
3234.092, 99.21883
3234.574, 99.32624
3235.056, 99.44959
3235.538, 99.58177
3236.02, 99.70813
3236.502, 99.81078
3236.984, 99.87395
3237.466, 99.88998
3237.948, 99.86202
3238.431, 99.80307
3238.913, 99.7308
3239.395, 99.66168
3239.877, 99.60512
3240.359, 99.56197
3240.841, 99.52575
3241.323, 99.48711
3241.806, 99.43864
3242.288, 99.37885
3242.77, 99.31171
3243.252, 99.24609
3243.734, 99.1909
3244.216, 99.15266
3244.698, 99.13368
3245.18, 99.13264
3245.663, 99.14632
3246.145, 99.17129
3246.627, 99.20511
3247.109, 99.24515
3247.591, 99.28796
3248.073, 99.32745
3248.555, 99.35533
3249.037, 99.36298
3249.52, 99.3437
3250.002, 99.29612
3250.484, 99.22471
3250.966, 99.13946
3251.448, 99.05332
3251.93, 98.97865
3252.412, 98.9244
3252.894, 98.89476
3253.376, 98.88889
3253.859, 98.90274
3254.341, 98.9303
3254.823, 98.9649
3255.305, 99.00004
3255.787, 99.02979
3256.269, 99.04953
3256.751, 99.05699
3257.234, 99.05331
3257.716, 99.04402
3258.198, 99.03806
3258.68, 99.04549
3259.162, 99.07416
3259.644, 99.12625
3260.126, 99.19615
3260.608, 99.27212
3261.091, 99.33866
3261.573, 99.38229
3262.055, 99.39521
3262.537, 99.3781
3263.019, 99.3386
3263.501, 99.28892
3263.983, 99.24048
3264.465, 99.20105
3264.948, 99.17292
3265.43, 99.1545
3265.912, 99.14263
3266.394, 99.13507
3266.876, 99.13145
3267.358, 99.13296
3267.84, 99.13972
3268.323, 99.14978
3268.804, 99.15781
3269.287, 99.15799
3269.769, 99.14556
3270.251, 99.12056
3270.733, 99.08842
3271.215, 99.05858
3271.697, 99.04101
3272.179, 99.04216
3272.662, 99.06226
3273.144, 99.09534
3273.626, 99.13197
3274.108, 99.16277
3274.59, 99.18291
3275.072, 99.19292
3275.554, 99.19803
3276.036, 99.20419
3276.519, 99.21477
3277.001, 99.22832
3277.483, 99.23854
3277.965, 99.23743
3278.447, 99.21921
3278.929, 99.18359
3279.411, 99.13686
3279.893, 99.09028
3280.375, 99.05623
3280.858, 99.04456
3281.34, 99.05933
3281.822, 99.09885
3282.304, 99.15617
3282.786, 99.22286
3283.268, 99.29038
3283.75, 99.35271
3284.232, 99.40565
3284.715, 99.44648
3285.197, 99.47207
3285.679, 99.47931
3286.161, 99.46519
3286.643, 99.42875
3287.125, 99.3724
3287.607, 99.30353
3288.09, 99.23356
3288.572, 99.17699
3289.054, 99.1479
3289.536, 99.15684
3290.018, 99.20765
3290.5, 99.29612
3290.982, 99.40919
3291.464, 99.52777
3291.947, 99.62985
3292.429, 99.69543
3292.911, 99.71115
3293.393, 99.67287
3293.875, 99.58735
3294.357, 99.46998
3294.839, 99.34097
3295.321, 99.22105
3295.803, 99.12672
3296.286, 99.06784
3296.768, 99.04679
3297.25, 99.05962
3297.732, 99.09785
3298.214, 99.15115
3298.696, 99.20837
3299.178, 99.25951
3299.66, 99.2963
3300.143, 99.3132
3300.625, 99.30827
3301.107, 99.28413
3301.589, 99.24776
3302.071, 99.20947
3302.553, 99.18062
3303.035, 99.17078
3303.518, 99.18522
3304.0, 99.22383
3304.482, 99.28145
3304.964, 99.34988
3305.446, 99.42024
3305.928, 99.48491
3306.41, 99.53855
3306.892, 99.57816
3307.375, 99.60237
3307.857, 99.6113
3308.339, 99.60638
3308.821, 99.59087
3309.303, 99.56987
3309.785, 99.54971
3310.267, 99.53548
3310.749, 99.52894
3311.231, 99.52689
3311.714, 99.52183
3312.196, 99.50471
3312.678, 99.46943
3313.16, 99.41633
3313.642, 99.35452
3314.124, 99.29886
3314.606, 99.26514
3315.088, 99.26413
3315.571, 99.29616
3316.053, 99.35062
3316.535, 99.40961
3317.017, 99.45386
3317.499, 99.47078
3317.981, 99.45799
3318.463, 99.42429
3318.946, 99.3847
3319.427, 99.35478
3319.91, 99.34483
3320.392, 99.35764
3320.874, 99.38921
3321.356, 99.43351
3321.838, 99.48495
3322.32, 99.54189
3322.802, 99.60472
3323.285, 99.67361
3323.767, 99.74512
3324.249, 99.81116
3324.731, 99.86033
3325.213, 99.88208
3325.695, 99.87007
3326.177, 99.82557
3326.659, 99.75584
3327.142, 99.67196
3327.624, 99.58389
3328.106, 99.49889
3328.588, 99.42009
3329.07, 99.34956
3329.552, 99.29037
3330.034, 99.24889
3330.516, 99.23334
3330.999, 99.25085
3331.481, 99.30253
3331.963, 99.3813
3332.445, 99.47101
3332.927, 99.55134
3333.409, 99.60287
3333.891, 99.61375
3334.374, 99.58219
3334.855, 99.51682
3335.338, 99.43214
3335.82, 99.34406
3336.302, 99.26524
3336.784, 99.2037
3337.266, 99.16293
3337.748, 99.14428
3338.23, 99.14811
3338.713, 99.17394
3339.195, 99.21919
3339.677, 99.27707
3340.159, 99.33648
3340.641, 99.38419
3341.123, 99.40768
3341.605, 99.40048
3342.087, 99.3644
3342.57, 99.30915
3343.052, 99.24934
3343.534, 99.19903
3344.016, 99.16721
3344.498, 99.15501
3344.98, 99.1571
3345.462, 99.16476
3345.944, 99.17026
3346.427, 99.16988
3346.909, 99.16433
3347.391, 99.15759
3347.873, 99.15305
3348.355, 99.1518
3348.837, 99.15132
3349.319, 99.1475
3349.802, 99.13651
3350.283, 99.11794
3350.766, 99.09467
3351.248, 99.07239
3351.73, 99.05666
3352.212, 99.05088
3352.694, 99.0546
3353.176, 99.064
3353.658, 99.07401
3354.141, 99.08024
3354.623, 99.08138
3355.105, 99.079
3355.587, 99.07706
3356.069, 99.08044
3356.551, 99.09301
3357.033, 99.11708
3357.515, 99.15311
3357.998, 99.19947
3358.48, 99.25277
3358.962, 99.30716
3359.444, 99.35427
3359.926, 99.38404
3360.408, 99.38604
3360.89, 99.3528
3361.372, 99.28313
3361.854, 99.18453
3362.337, 99.07372
3362.819, 98.97367
3363.301, 98.90855
3363.783, 98.89771
3364.265, 98.94936
3364.747, 99.05803
3365.229, 99.20509
3365.712, 99.36345
3366.194, 99.50397
3366.676, 99.60304
3367.158, 99.64785
3367.64, 99.63906
3368.122, 99.5886
3368.604, 99.51507
3369.086, 99.43761
3369.569, 99.37076
3370.051, 99.32127
3370.533, 99.28812
3371.015, 99.2656
3371.497, 99.24712
3371.979, 99.22921
3372.461, 99.21356
3372.943, 99.20654
3373.426, 99.21687
3373.908, 99.25176
3374.39, 99.3138
3374.872, 99.39941
3375.354, 99.49924
3375.836, 99.60101
3376.318, 99.69269
3376.8, 99.76537
3377.282, 99.8155
3377.765, 99.84405
3378.247, 99.85546
3378.729, 99.85544
3379.211, 99.84911
3379.693, 99.84032
3380.175, 99.83131
3380.657, 99.8232
3381.14, 99.81627
3381.622, 99.80972
3382.104, 99.80171
3382.586, 99.78957
3383.068, 99.7706
3383.55, 99.74328
3384.032, 99.7092
3384.514, 99.67332
3384.997, 99.64333
3385.479, 99.62744
3385.961, 99.63174
3386.443, 99.65733
3386.925, 99.70008
3387.407, 99.7515
3387.889, 99.80235
3388.371, 99.84549
3388.854, 99.87885
3389.336, 99.90549
3389.818, 99.93159
3390.3, 99.96242
3390.782, 99.99948
3391.264, 100.0385
3391.746, 100.0704
3392.229, 100.0839
3392.71, 100.07
3393.193, 100.0245
3393.675, 99.94949
3394.157, 99.85245
3394.639, 99.74397
3395.121, 99.63552
3395.603, 99.53765
3396.085, 99.45941
3396.568, 99.40826
3397.05, 99.38962
3397.532, 99.40615
3398.014, 99.45657
3398.496, 99.534
3398.978, 99.62694
3399.46, 99.72079
3399.942, 99.80255
3400.425, 99.86428
3400.907, 99.90569
3401.389, 99.93366
3401.871, 99.95858
3402.353, 99.98891
3402.835, 100.0263
3403.317, 100.0639
3403.799, 100.0878
3404.281, 100.0828
3404.764, 100.0388
3405.246, 99.95597
3405.728, 99.84585
3406.21, 99.72828
3406.692, 99.62505
3407.174, 99.55357
3407.656, 99.52208
3408.138, 99.5289
3408.621, 99.56544
3409.103, 99.62
3409.585, 99.68274
3410.067, 99.74742
3410.549, 99.81096
3411.031, 99.87176
3411.513, 99.92644
3411.996, 99.97002
3412.478, 99.99552
3412.96, 99.99726
3413.442, 99.97269
3413.924, 99.92381
3414.406, 99.85659
3414.888, 99.77942
3415.37, 99.70019
3415.853, 99.62563
3416.335, 99.56155
3416.817, 99.51285
3417.299, 99.48503
3417.781, 99.48386
3418.263, 99.51259
3418.745, 99.57
3419.227, 99.64801
3419.709, 99.73181
3420.192, 99.80315
3420.674, 99.84554
3421.156, 99.84969
3421.638, 99.81725
3422.12, 99.76035
3422.602, 99.69778
3423.084, 99.64852
3423.566, 99.62579
3424.049, 99.63303
3424.531, 99.66407
3425.013, 99.70628
3425.495, 99.74628
3425.977, 99.77409
3426.459, 99.78625
3426.941, 99.78561
3427.424, 99.77882
3427.906, 99.77289
3428.388, 99.77309
3428.87, 99.78131
3429.352, 99.79636
3429.834, 99.81533
3430.316, 99.8349
3430.798, 99.85151
3431.281, 99.8625
3431.763, 99.86546
3432.245, 99.85934
3432.727, 99.84481
3433.209, 99.82467
3433.691, 99.80329
3434.173, 99.78532
3434.655, 99.77404
3435.137, 99.76885
3435.62, 99.76555
3436.102, 99.75672
3436.584, 99.73538
3437.066, 99.69753
3437.548, 99.64513
3438.03, 99.58604
3438.512, 99.5319
3438.994, 99.4945
3439.477, 99.48151
3439.959, 99.49433
3440.441, 99.52821
3440.923, 99.57449
3441.405, 99.62426
3441.887, 99.67135
3442.369, 99.71407
3442.852, 99.75443
3443.333, 99.7956
3443.816, 99.83977
3444.298, 99.88615
3444.78, 99.93085
3445.262, 99.96849
3445.744, 99.994
3446.226, 100.004
3446.708, 99.99797
3447.191, 99.97704
3447.673, 99.94375
3448.155, 99.90107
3448.637, 99.85268
3449.119, 99.80396
3449.601, 99.76202
3450.083, 99.73587
3450.565, 99.73439
3451.048, 99.7635
3451.53, 99.82345
3452.012, 99.90659
3452.494, 99.99797
3452.976, 100.0778
3453.458, 100.1264
3453.94, 100.1288
3454.422, 100.0793
3454.905, 99.98293
3455.387, 99.85437
3455.869, 99.71404
3456.351, 99.58379
3456.833, 99.48148
3457.315, 99.41833
3457.797, 99.3961
3458.28, 99.40944
3458.761, 99.44636
3459.244, 99.49321
3459.726, 99.53721
3460.208, 99.57032
3460.69, 99.59053
3461.172, 99.60214
3461.654, 99.61341
3462.136, 99.63409
3462.619, 99.67083
3463.101, 99.72498
3463.583, 99.79134
3464.065, 99.85947
3464.547, 99.91608
3465.029, 99.95026
3465.511, 99.95567
3465.993, 99.9332
3466.476, 99.88931
3466.958, 99.83418
3467.44, 99.77714
3467.922, 99.72431
3468.404, 99.67712
3468.886, 99.63345
3469.368, 99.59051
3469.85, 99.5481
3470.333, 99.5103
3470.815, 99.48519
3471.297, 99.4824
3471.779, 99.50914
3472.261, 99.56664
3472.743, 99.64896
3473.225, 99.7432
3473.708, 99.83427
3474.189, 99.90827
3474.672, 99.95645
3475.154, 99.97699
3475.636, 99.97354
3476.118, 99.95227
3476.6, 99.9184
3477.082, 99.87447
3477.564, 99.8206
3478.047, 99.75699
3478.529, 99.68724
3479.011, 99.62
3479.493, 99.5682
3479.975, 99.54543
3480.457, 99.56067
3480.939, 99.61349
3481.421, 99.6922
3481.904, 99.77631
3482.386, 99.84211
3482.868, 99.87081
3483.35, 99.85476
3483.832, 99.79968
3484.314, 99.72235
3484.796, 99.64395
3485.278, 99.5822
3485.76, 99.54513
3486.243, 99.52988
3486.725, 99.5249
3487.207, 99.51723
3487.689, 99.49871
3488.171, 99.47109
3488.653, 99.44572
3489.135, 99.43974
3489.618, 99.46822
3490.1, 99.53833
3490.582, 99.64479
3491.064, 99.77052
3491.546, 99.89078
3492.028, 99.9809
3492.51, 100.0223
3492.992, 100.0079
3493.475, 99.94266
3493.957, 99.84129
3494.439, 99.7238
3494.921, 99.60989
3495.403, 99.5145
3495.885, 99.44588
3496.367, 99.40498
3496.849, 99.38749
3497.332, 99.38531
3497.814, 99.39075
3498.296, 99.39843
3498.778, 99.40749
3499.26, 99.42162
3499.742, 99.44798
3500.224, 99.49422
3500.706, 99.5656
3501.188, 99.66148
3501.671, 99.77438
3502.153, 99.88996
3502.635, 99.99072
3503.117, 100.0597
3503.599, 100.0852
3504.081, 100.0633
3504.563, 99.99845
3505.046, 99.90138
3505.528, 99.78583
3506.01, 99.66484
3506.492, 99.54912
3506.974, 99.44591
3507.456, 99.36052
3507.938, 99.29678
3508.42, 99.25798
3508.903, 99.2459
3509.385, 99.25896
3509.867, 99.29105
3510.349, 99.33112
3510.831, 99.36516
3511.313, 99.37988
3511.795, 99.3665
3512.277, 99.32492
3512.76, 99.2635
3513.242, 99.19727
3513.724, 99.14316
3514.206, 99.11483
3514.688, 99.11758
3515.17, 99.14793
3515.652, 99.19415
3516.135, 99.24072
3516.616, 99.2739
3517.099, 99.28542
3517.581, 99.27466
3518.063, 99.24899
3518.545, 99.21946
3519.027, 99.19798
3519.509, 99.19308
3519.991, 99.20808
3520.474, 99.24062
3520.956, 99.28397
3521.438, 99.32955
3521.92, 99.37006
3522.402, 99.4004
3522.884, 99.41963
3523.366, 99.43029
3523.848, 99.43776
3524.331, 99.448
3524.813, 99.46593
3525.295, 99.49391
3525.777, 99.5312
3526.259, 99.57369
3526.741, 99.61552
3527.223, 99.65047
3527.705, 99.6744
3528.188, 99.68668
3528.67, 99.69048
3529.152, 99.69226
3529.634, 99.69945
3530.116, 99.71792
3530.598, 99.75034
3531.08, 99.79414
3531.563, 99.8432
3532.044, 99.8891
3532.527, 99.92426
3533.009, 99.94434
3533.491, 99.94952
3533.973, 99.94425
3534.455, 99.93508
3534.937, 99.92718
3535.419, 99.92282
3535.902, 99.91877
3536.384, 99.90743
3536.866, 99.87881
3537.348, 99.82407
3537.83, 99.73843
3538.312, 99.62371
3538.794, 99.48783
3539.276, 99.34342
3539.759, 99.20435
3540.241, 99.08315
3540.723, 98.98833
3541.205, 98.92365
3541.687, 98.88882
3542.169, 98.88092
3542.651, 98.89619
3543.133, 98.93007
3543.615, 98.97803
3544.098, 99.03446
3544.58, 99.09217
3545.062, 99.14252
3545.544, 99.17633
3546.026, 99.18719
3546.508, 99.17245
3546.99, 99.13605
3547.472, 99.08755
3547.955, 99.04017
3548.437, 99.00732
3548.919, 98.99915
3549.401, 99.01923
3549.883, 99.06469
3550.365, 99.12667
3550.847, 99.19363
3551.33, 99.25428
3551.812, 99.30003
3552.294, 99.32661
3552.776, 99.33397
3553.258, 99.32508
3553.74, 99.30489
3554.222, 99.27919
3554.704, 99.25385
3555.187, 99.23378
3555.669, 99.22243
3556.151, 99.22043
3556.633, 99.2253
3557.115, 99.23094
3557.597, 99.22989
3558.079, 99.21529
3558.561, 99.18403
3559.043, 99.13934
3559.526, 99.09038
3560.008, 99.05022
3560.49, 99.03196
3560.972, 99.04373
3561.454, 99.08584
3561.936, 99.15023
3562.418, 99.22356
3562.9, 99.29131
3563.383, 99.34337
3563.865, 99.37569
3564.347, 99.39102
3564.829, 99.39577
3565.311, 99.3961
3565.793, 99.39479
3566.275, 99.39095
3566.758, 99.38122
3567.24, 99.36255
3567.722, 99.33537
3568.204, 99.30375
3568.686, 99.27364
3569.168, 99.25006
3569.65, 99.23387
3570.132, 99.22182
3570.615, 99.2075
3571.097, 99.18585
3571.579, 99.15544
3572.061, 99.12133
3572.543, 99.0927
3573.025, 99.07955
3573.507, 99.08842
3573.989, 99.1194
3574.471, 99.16603
3574.954, 99.21831
3575.436, 99.26707
3575.918, 99.30711
3576.4, 99.33854
3576.882, 99.36493
3577.364, 99.38966
3577.846, 99.4133
3578.328, 99.43198
3578.811, 99.44036
3579.293, 99.43465
3579.775, 99.41698
3580.257, 99.39653
3580.739, 99.38753
3581.221, 99.40401
3581.703, 99.45395
3582.186, 99.53519
3582.667, 99.63519
3583.15, 99.73418
3583.632, 99.81156
3584.114, 99.85171
3584.596, 99.84814
3585.078, 99.80372
3585.56, 99.72852
3586.042, 99.63567
3586.525, 99.53793
3587.007, 99.44566
3587.489, 99.3672
3587.971, 99.30925
3588.453, 99.27805
3588.935, 99.27784
3589.417, 99.31058
3589.899, 99.37315
3590.382, 99.45801
3590.864, 99.55353
3591.346, 99.64677
3591.828, 99.72637
3592.31, 99.78527
3592.792, 99.82151
3593.274, 99.83807
3593.756, 99.84087
3594.239, 99.83702
3594.721, 99.8325
3595.203, 99.83193
3595.685, 99.83791
3596.167, 99.8513
3596.649, 99.87054
3597.131, 99.89263
3597.614, 99.91247
3598.095, 99.92423
3598.578, 99.92117
3599.06, 99.89799
3599.542, 99.85055
3600.024, 99.77734
3600.506, 99.67909
3600.988, 99.55994
3601.47, 99.42738
3601.953, 99.29295
3602.435, 99.17259
3602.917, 99.08475
3603.399, 99.04691
3603.881, 99.07156
3604.363, 99.1604
3604.845, 99.30264
3605.327, 99.4748
3605.81, 99.64634
3606.292, 99.78726
3606.774, 99.87658
3607.256, 99.90746
3607.738, 99.8887
3608.22, 99.83922
3608.702, 99.78121
3609.184, 99.73096
3609.667, 99.69539
3610.149, 99.6712
3610.631, 99.64966
3611.113, 99.62183
3611.595, 99.58365
3612.077, 99.53635
3612.559, 99.48537
3613.042, 99.43593
3613.524, 99.39014
3614.006, 99.34675
3614.488, 99.30296
3614.97, 99.25759
3615.452, 99.2142
3615.934, 99.18042
3616.416, 99.1647
3616.898, 99.17274
3617.381, 99.20336
3617.863, 99.24895
3618.345, 99.29831
3618.827, 99.34234
3619.309, 99.37867
3619.791, 99.41304
3620.273, 99.45625
3620.755, 99.51803
3621.238, 99.59995
3621.72, 99.69195
3622.202, 99.77361
3622.684, 99.82035
3623.166, 99.81188
3623.648, 99.73988
3624.13, 99.61179
3624.612, 99.44878
3625.094, 99.27979
3625.577, 99.13242
3626.059, 99.02612
3626.541, 98.96877
3627.023, 98.95603
3627.505, 98.97504
3627.987, 99.00969
3628.469, 99.0443
3628.952, 99.0681
3629.434, 99.07642
3629.916, 99.07085
3630.398, 99.05763
3630.88, 99.04549
3631.362, 99.04222
3631.844, 99.05335
3632.326, 99.07929
3632.809, 99.11591
3633.291, 99.15493
3633.773, 99.18673
3634.255, 99.20302
3634.737, 99.19945
3635.219, 99.17541
3635.701, 99.13364
3636.183, 99.07719
3636.666, 99.00786
3637.148, 98.92551
3637.63, 98.82967
3638.112, 98.72167
3638.594, 98.60802
3639.076, 98.49971
3639.558, 98.41113
3640.041, 98.35438
3640.522, 98.33565
3641.005, 98.35231
3641.487, 98.39278
3641.969, 98.44109
3642.451, 98.48252
3642.933, 98.50882
3643.415, 98.52061
3643.897, 98.52631
3644.38, 98.53761
3644.862, 98.56449
3645.344, 98.61077
3645.826, 98.67264
3646.308, 98.74023
3646.79, 98.80012
3647.272, 98.83936
3647.754, 98.8477
3648.237, 98.81931
3648.719, 98.75338
3649.201, 98.65482
3649.683, 98.53426
3650.165, 98.4092
3650.647, 98.30112
3651.129, 98.23321
3651.611, 98.22435
3652.094, 98.28392
3652.576, 98.40792
3653.058, 98.57922
3653.54, 98.77106
3654.022, 98.95453
3654.504, 99.10583
3654.986, 99.21272
3655.469, 99.27599
3655.95, 99.30664
3656.433, 99.31979
3656.915, 99.32797
3657.397, 99.33655
3657.879, 99.34479
3658.361, 99.34832
3658.843, 99.34481
3659.325, 99.33609
3659.808, 99.32841
3660.29, 99.32883
3660.772, 99.34044
3661.254, 99.35948
3661.736, 99.37519
3662.218, 99.37397
3662.7, 99.34602
3663.182, 99.29076
3663.665, 99.21883
3664.147, 99.14944
3664.629, 99.10333
3665.111, 99.09483
3665.593, 99.12533
3666.075, 99.18203
3666.557, 99.24186
3667.039, 99.27891
3667.521, 99.27372
3668.004, 99.2198
3668.486, 99.12611
3668.968, 99.01432
3669.45, 98.91197
3669.932, 98.84399
3670.414, 98.82587
3670.896, 98.85904
3671.378, 98.9325
3671.861, 99.02601
3672.343, 99.11757
3672.825, 99.189
3673.307, 99.23058
3673.789, 99.24226
3674.271, 99.23361
3674.753, 99.21931
3675.236, 99.21554
3675.718, 99.23373
3676.2, 99.27675
3676.682, 99.33678
3677.164, 99.3979
3677.646, 99.43973
3678.128, 99.44469
3678.61, 99.40289
3679.093, 99.31606
3679.575, 99.19743
3680.057, 99.06808
3680.539, 98.95088
3681.021, 98.86407
3681.503, 98.81699
3681.985, 98.8091
3682.467, 98.83243
3682.949, 98.87646
3683.432, 98.93302
3683.914, 98.99852
3684.396, 99.0731
3684.878, 99.15796
3685.36, 99.25099
3685.842, 99.34442
3686.324, 99.42494
3686.806, 99.47754
3687.289, 99.4901
3687.771, 99.4598
3688.253, 99.39404
3688.735, 99.31019
3689.217, 99.22913
3689.699, 99.16959
3690.181, 99.14226
3690.664, 99.14841
3691.146, 99.1813
3691.628, 99.23003
3692.11, 99.28319
3692.592, 99.33134
3693.074, 99.36803
3693.556, 99.38905
3694.038, 99.39164
3694.521, 99.37503
3695.003, 99.34131
3695.485, 99.29687
3695.967, 99.25212
3696.449, 99.21977
3696.931, 99.21037
3697.413, 99.22819
3697.895, 99.26798
3698.377, 99.31555
3698.86, 99.35253
3699.342, 99.36275
3699.824, 99.33832
3700.306, 99.28385
3700.788, 99.21429
3701.27, 99.15024
3701.752, 99.10972
3702.234, 99.10217
3702.717, 99.12484
3703.199, 99.16502
3703.681, 99.20502
3704.163, 99.22838
3704.645, 99.22511
3705.127, 99.19409
3705.609, 99.14149
3706.092, 99.07846
3706.573, 99.01797
3707.056, 98.97213
3707.538, 98.95114
3708.02, 98.96296
3708.502, 99.01184
3708.984, 99.0975
3709.466, 99.21366
3709.948, 99.34778
3710.431, 99.48184
3710.913, 99.59599
3711.395, 99.67207
3711.877, 99.69848
3712.359, 99.67128
3712.841, 99.5955
3713.323, 99.48166
3713.805, 99.34482
3714.288, 99.20053
3714.77, 99.06454
3715.252, 98.95116
3715.734, 98.87358
3716.216, 98.83986
3716.698, 98.85152
3717.18, 98.90018
3717.662, 98.96833
3718.145, 99.03255
3718.627, 99.06975
3719.109, 99.06523
3719.591, 99.01828
3720.073, 98.94201
3720.555, 98.85996
3721.037, 98.79678
3721.52, 98.7696
3722.001, 98.78298
3722.484, 98.8277
3722.966, 98.88616
3723.448, 98.94016
3723.93, 98.97757
3724.412, 98.99632
3724.894, 99.00247
3725.376, 99.0059
3725.859, 99.01412
3726.341, 99.02859
3726.823, 99.04419
3727.305, 99.05285
3727.787, 99.04677
3728.269, 99.02272
3728.751, 98.98177
3729.233, 98.92889
3729.716, 98.86964
3730.198, 98.80881
3730.68, 98.74976
3731.162, 98.69528
3731.644, 98.64814
3732.126, 98.61214
3732.608, 98.58953
3733.09, 98.58002
3733.573, 98.57941
3734.055, 98.58124
3734.537, 98.5795
3735.019, 98.57323
3735.501, 98.56859
3735.983, 98.57851
3736.465, 98.61816
3736.948, 98.69866
3737.43, 98.82065
3737.912, 98.9726
3738.394, 99.13223
3738.876, 99.27391
3739.358, 99.37556
3739.84, 99.42525
3740.322, 99.42287
3740.804, 99.37827
3741.287, 99.3061
3741.769, 99.22038
3742.251, 99.13108
3742.733, 99.04427
3743.215, 98.96337
3743.697, 98.89209
3744.179, 98.83529
3744.661, 98.79697
3745.144, 98.77795
3745.626, 98.77394
3746.108, 98.77538
3746.59, 98.77035
3747.072, 98.74914
3747.554, 98.70776
3748.036, 98.64983
3748.518, 98.58537
3749.0, 98.52737
3749.483, 98.48772
3749.965, 98.47364
3750.447, 98.48621
3750.929, 98.52168
3751.411, 98.57407
3751.893, 98.63723
3752.375, 98.70623
3752.858, 98.77792
3753.34, 98.85009
3753.822, 98.92172
3754.304, 98.9927
3754.786, 99.06362
3755.268, 99.13568
3755.75, 99.20819
3756.232, 99.27717
3756.715, 99.33337
3757.197, 99.36324
3757.679, 99.35254
3758.161, 99.29175
3758.643, 99.18138
3759.125, 99.03492
3759.607, 98.87699
3760.089, 98.73777
3760.572, 98.64416
3761.054, 98.61211
3761.536, 98.64236
3762.018, 98.72169
3762.5, 98.82835
3762.982, 98.9401
3763.464, 99.04037
3763.947, 99.12216
3764.428, 99.18693
3764.911, 99.24117
3765.393, 99.29165
3765.875, 99.34247
3766.357, 99.39395
3766.839, 99.44418
3767.321, 99.49078
3767.803, 99.53244
3768.286, 99.56849
3768.768, 99.59793
3769.25, 99.61832
3769.732, 99.6259
3770.214, 99.61671
3770.696, 99.5895
3771.178, 99.54662
3771.66, 99.49527
3772.143, 99.44475
3772.625, 99.40398
3773.107, 99.37777
3773.589, 99.36582
3774.071, 99.36222
3774.553, 99.35896
3775.035, 99.34818
3775.517, 99.32574
3776.0, 99.29186
3776.482, 99.25108
3776.964, 99.20984
3777.446, 99.17502
3777.928, 99.15222
3778.41, 99.1451
3778.892, 99.15487
3779.375, 99.18073
3779.856, 99.21987
3780.339, 99.26678
3780.821, 99.31406
3781.303, 99.35322
3781.785, 99.3756
3782.267, 99.37531
3782.749, 99.34987
3783.231, 99.30168
3783.714, 99.23685
3784.196, 99.16428
3784.678, 99.09322
3785.16, 99.03185
3785.642, 98.9854
3786.124, 98.95675
3786.606, 98.94529
3787.088, 98.94839
3787.571, 98.96143
3788.053, 98.97813
3788.535, 98.99197
3789.017, 98.99686
3789.499, 98.98847
3789.981, 98.96522
3790.463, 98.92833
3790.945, 98.88157
3791.427, 98.83003
3791.91, 98.77895
3792.392, 98.7329
3792.874, 98.69517
3793.356, 98.66809
3793.838, 98.65327
3794.32, 98.6515
3794.802, 98.66294
3795.284, 98.68674
3795.767, 98.72157
3796.249, 98.76574
3796.731, 98.81873
3797.213, 98.88125
3797.695, 98.95495
3798.177, 99.04031
3798.659, 99.13475
3799.142, 99.22991
3799.624, 99.31196
3800.106, 99.36331
3800.588, 99.36835
3801.07, 99.31831
3801.552, 99.21693
3802.034, 99.0803
3802.516, 98.9334
3802.999, 98.80255
3803.481, 98.70801
3803.963, 98.65965
3804.445, 98.65667
3804.927, 98.69053
3805.409, 98.75018
3805.891, 98.82637
3806.373, 98.9138
3806.855, 99.00969
3807.338, 99.11127
3807.82, 99.21195
3808.302, 99.30022
3808.784, 99.36123
3809.266, 99.38129
3809.748, 99.35228
3810.23, 99.27599
3810.712, 99.16408
3811.195, 99.03617
3811.677, 98.91512
3812.159, 98.82139
3812.641, 98.76947
3813.123, 98.76568
3813.605, 98.80872
3814.087, 98.89105
3814.57, 99.00033
3815.052, 99.1216
3815.534, 99.2392
3816.016, 99.33919
3816.498, 99.41174
3816.98, 99.45357
3817.462, 99.46809
3817.944, 99.4635
3818.427, 99.45002
3818.909, 99.43556
3819.391, 99.42267
3819.873, 99.40811
3820.355, 99.38405
3820.837, 99.34212
3821.319, 99.2776
3821.801, 99.19313
3822.283, 99.09848
3822.766, 99.00832
3823.248, 98.93687
3823.73, 98.89438
3824.212, 98.88359
3824.694, 98.90009
3825.176, 98.93443
3825.658, 98.97554
3826.14, 99.01458
3826.623, 99.04729
3827.105, 99.07464
3827.587, 99.1022
3828.069, 99.1367
3828.551, 99.18414
3829.033, 99.24612
3829.515, 99.31965
3829.998, 99.39634
3830.479, 99.46401
3830.962, 99.51021
3831.444, 99.52492
3831.926, 99.50432
3832.408, 99.45271
3832.89, 99.38142
3833.372, 99.30683
3833.854, 99.24571
3834.337, 99.21103
3834.819, 99.20895
3835.301, 99.23803
3835.783, 99.28998
3836.265, 99.35311
3836.747, 99.41463
3837.229, 99.46356
3837.711, 99.49123
3838.194, 99.49204
3838.676, 99.46333
3839.158, 99.40536
3839.64, 99.32173
3840.122, 99.21992
3840.604, 99.11077
3841.086, 99.00715
3841.568, 98.92009
3842.051, 98.85655
3842.533, 98.8167
3843.015, 98.79468
3843.497, 98.78069
3843.979, 98.76659
3844.461, 98.74883
3844.943, 98.73147
3845.426, 98.72358
3845.907, 98.73592
3846.39, 98.77498
3846.872, 98.83938
3847.354, 98.91949
3847.836, 98.99999
3848.318, 99.06467
3848.8, 99.10272
3849.282, 99.11183
3849.765, 99.09844
3850.247, 99.07561
3850.729, 99.0583
3851.211, 99.05854
3851.693, 99.08264
3852.175, 99.12947
3852.657, 99.19129
3853.139, 99.2557
3853.622, 99.30862
3854.104, 99.33756
3854.586, 99.33511
3855.068, 99.30087
3855.55, 99.24222
3856.032, 99.17287
3856.514, 99.10985
3856.996, 99.0689
3857.479, 99.0604
3857.961, 99.08533
3858.443, 99.13531
3858.925, 99.19473
3859.407, 99.24597
3859.889, 99.27519
3860.371, 99.27739
3860.854, 99.25688
3861.336, 99.22462
3861.818, 99.1921
3862.3, 99.16593
3862.782, 99.14375
3863.264, 99.1162
3863.746, 99.0701
3864.228, 98.99639
3864.71, 98.89537
3865.193, 98.77917
3865.675, 98.66862
3866.157, 98.58779
3866.639, 98.55539
3867.121, 98.57961
3867.603, 98.65453
3868.085, 98.76198
3868.567, 98.87574
3869.05, 98.96803
3869.532, 99.01612
3870.014, 99.00791
3870.496, 98.94411
3870.978, 98.83807
3871.46, 98.71066
3871.942, 98.58613
3872.424, 98.48531
3872.906, 98.42224
3873.389, 98.40157
3873.871, 98.41869
3874.353, 98.46207
3874.835, 98.51727
3875.317, 98.57078
3875.799, 98.614
3876.281, 98.64397
3876.764, 98.66251
3877.246, 98.67333
3877.728, 98.67929
3878.21, 98.68048
3878.692, 98.67477
3879.174, 98.65952
3879.656, 98.63468
3880.138, 98.6046
3880.621, 98.57795
3881.103, 98.56611
3881.585, 98.5798
3882.067, 98.62476
3882.549, 98.70036
3883.031, 98.7989
3883.513, 98.90771
3883.995, 99.01228
3884.478, 99.09989
3884.96, 99.16274
3885.442, 99.19949
3885.924, 99.21463
3886.406, 99.21687
3886.888, 99.21544
3887.37, 99.2172
3887.853, 99.2238
3888.334, 99.23149
3888.817, 99.23234
3889.299, 99.2177
3889.781, 99.182
3890.263, 99.12653
3890.745, 99.06091
3891.227, 99.00143
3891.709, 98.96675
3892.192, 98.97122
3892.674, 99.02038
3893.156, 99.10751
3893.638, 99.21535
3894.12, 99.3213
3894.602, 99.40343
3895.084, 99.44695
3895.566, 99.44732
3896.049, 99.40981
3896.531, 99.34576
3897.013, 99.2681
3897.495, 99.18703
3897.977, 99.10833
3898.459, 99.03467
3898.941, 98.96706
3899.423, 98.90728
3899.906, 98.8589
3900.388, 98.82542
3900.87, 98.80897
3901.352, 98.80817
3901.834, 98.81865
3902.316, 98.83385
3902.798, 98.8485
3903.281, 98.86002
3903.762, 98.86971
3904.245, 98.88077
3904.727, 98.89667
3905.209, 98.91825
3905.691, 98.94337
3906.173, 98.96758
3906.655, 98.98689
3907.137, 98.99936
3907.62, 99.00664
3908.102, 99.01241
3908.584, 99.02098
3909.066, 99.03381
3909.548, 99.04935
3910.03, 99.06286
3910.512, 99.06935
3910.994, 99.06571
3911.477, 99.05276
3911.959, 99.03546
3912.441, 99.02106
3912.923, 99.01599
3913.405, 99.02432
3913.887, 99.04527
3914.369, 99.07529
3914.851, 99.10802
3915.333, 99.13773
3915.816, 99.15962
3916.298, 99.17094
3916.78, 99.17075
3917.262, 99.15967
3917.744, 99.13943
3918.226, 99.11331
3918.708, 99.08492
3919.19, 99.0583
3919.673, 99.036
3920.155, 99.01807
3920.637, 99.00147
3921.119, 98.98107
3921.601, 98.95158
3922.083, 98.91132
3922.565, 98.86382
3923.048, 98.81867
3923.53, 98.78969
3924.012, 98.7907
3924.494, 98.83029
3924.976, 98.908
3925.458, 99.01279
3925.94, 99.12517
3926.422, 99.22131
3926.905, 99.27996
3927.387, 99.28745
3927.869, 99.24176
3928.351, 99.15224
3928.833, 99.03825
3929.315, 98.92297
3929.797, 98.82845
3930.279, 98.76994
3930.761, 98.75288
3931.244, 98.77169
3931.726, 98.81277
3932.208, 98.8589
3932.69, 98.89479
3933.172, 98.91276
3933.654, 98.91411
3934.136, 98.9085
3934.618, 98.90914
3935.101, 98.9264
3935.583, 98.96333
3936.065, 99.01273
3936.547, 99.05991
3937.029, 99.08759
3937.511, 99.08276
3937.993, 99.04163
3938.476, 98.97083
3938.958, 98.88481
3939.44, 98.79971
3939.922, 98.72787
3940.404, 98.67553
3940.886, 98.64215
3941.368, 98.62553
3941.85, 98.62498
3942.333, 98.64398
3942.815, 98.68906
3943.297, 98.765
3943.779, 98.86941
3944.261, 98.9899
3944.743, 99.10468
3945.225, 99.18863
3945.707, 99.22169
3946.189, 99.19646
3946.672, 99.12186
3947.154, 99.02022
3947.636, 98.91977
3948.118, 98.84521
3948.6, 98.80941
3949.082, 98.81081
3949.564, 98.83579
3950.046, 98.86562
3950.529, 98.88377
3951.011, 98.88245
3951.493, 98.86305
3951.975, 98.83458
3952.457, 98.80804
3952.939, 98.79164
3953.421, 98.78764
3953.904, 98.79266
3954.385, 98.79945
3954.868, 98.80119
3955.35, 98.79375
3955.832, 98.77757
3956.314, 98.75718
3956.796, 98.739
3957.278, 98.72928
3957.76, 98.731
3958.243, 98.74294
3958.725, 98.75903
3959.207, 98.76936
3959.689, 98.76346
3960.171, 98.73278
3960.653, 98.67523
3961.135, 98.59656
3961.617, 98.5104
3962.1, 98.43563
3962.582, 98.39099
3963.064, 98.38951
3963.546, 98.43494
3964.028, 98.51991
3964.51, 98.62925
3964.992, 98.74422
3965.474, 98.84933
3965.957, 98.93538
3966.439, 99.0013
3966.921, 99.05085
3967.403, 99.08879
3967.885, 99.11716
3968.367, 99.13308
3968.849, 99.13126
3969.332, 99.10691
3969.813, 99.05999
3970.296, 98.99779
3970.778, 98.93307
3971.26, 98.88092
3971.742, 98.85387
3972.224, 98.85847
3972.706, 98.89425
3973.188, 98.955
3973.671, 99.03223
3974.153, 99.11808
3974.635, 99.206
3975.117, 99.29076
3975.599, 99.36591
3976.081, 99.42276
3976.563, 99.45139
3977.045, 99.44235
3977.528, 99.39159
3978.01, 99.30266
3978.492, 99.18755
3978.974, 99.06416
3979.456, 98.95168
3979.938, 98.86497
3980.42, 98.81143
3980.902, 98.79015
3981.385, 98.79401
3981.867, 98.81365
3982.349, 98.84049
3982.831, 98.86831
3983.313, 98.89313
3983.795, 98.91102
3984.277, 98.91764
3984.76, 98.90762
3985.242, 98.87718
3985.724, 98.82791
3986.206, 98.76813
3986.688, 98.71365
3987.17, 98.68374
3987.652, 98.69566
3988.134, 98.75846
3988.616, 98.8689
3989.099, 99.01062
3989.581, 99.15789
3990.063, 99.28211
3990.545, 99.35954
3991.027, 99.37691
3991.509, 99.33448
3991.991, 99.24448
3992.473, 99.12666
3992.956, 99.00307
3993.438, 98.89272
3993.92, 98.80845
3994.402, 98.75628
3994.884, 98.73515
3995.366, 98.73994
3995.848, 98.76278
3996.33, 98.79549
3996.813, 98.83108
3997.295, 98.86516
3997.777, 98.89554
3998.259, 98.92279
3998.741, 98.94868
3999.223, 98.97447
3999.705, 98.99934
4000.188, 99.01966
$$ === CHEMSPECTRA INTEGRALS AND MULTIPLETS ===
##$OBSERVEDINTEGRALS= (X Y Z)

##$OBSERVEDMULTIPLETS=
##$OBSERVEDMULTIPLETSPEAKS=
$$ === CHEMSPECTRA SIMULATION ===
##$CSSIMULATIONPEAKS=
##END=


$$ === CHEMSPECTRA PEAK TABLE EDIT ===
##TITLE=compound 4-adamantanone-OTBS
##JCAMP-DX=5.00
##DATA TYPE=INFRAREDPEAKTABLE
##DATA CLASS=PEAKTABLE
##$CSCATEGORY=EDIT_PEAK
##$CSTHRESHOLD=0.93
##MAXX=4000.188
##MAXY=105.0164
##MINX=399.6813
##MINY=0.0
##$CSSOLVENTNAME=- - -
##$CSSOLVENTVALUE=0
##$CSSOLVENTX=0
##NPOINTS=20
##PEAKTABLE= (XY..XY)
778.6312, 45.69855
790.6843, 58.825
834.5577, 31.77727
899.6445, 53.93249
937.2502, 49.69452
1080.923, 59.46025
1095.387, 47.06096
1202.419, 61.39388
1250.149, 51.8653
1284.862, 48.13293
1305.593, 61.80648
1423.232, 66.38696
1472.408, 65.48166
1479.64, 59.70585
1577.03, 62.01576
1596.797, 61.99148
2847.428, 39.25356
2904.318, 28.06976
2924.568, 36.12796
2947.709, 55.46135
##END=


$$ === CHEMSPECTRA PEAK TABLE AUTO ===
##TITLE=compound 4-adamantanone-OTBS
##JCAMP-DX=5.00
##DATA TYPE=INFRAREDPEAKTABLE
##DATA CLASS=PEAKTABLE
##$CSCATEGORY=AUTO_PEAK
##$CSTHRESHOLD=0.93
##MAXX=4000.188
##MAXY=105.0164
##MINX=399.6813
##MINY=0.0
##NPOINTS=100
##PEAKTABLE= (XY..XY)
2284.306, 97.66227
2117.973, 97.60906
1633.92, 97.58768
1729.381, 97.58619
2088.563, 97.58509
2019.62, 97.55908
527.9265, 97.51508
2711.951, 97.4904
607.9591, 97.47501
1911.624, 97.46144
1989.246, 97.38062
1938.141, 97.35973
556.8539, 97.31945
2773.663, 97.27544
2130.509, 97.1927
3090.901, 97.18089
1534.603, 97.08858
3085.115, 97.08311
2011.424, 97.05406
458.9827, 97.0014
2783.787, 96.97561
520.2125, 96.97314
2634.329, 96.94189
2185.471, 96.93494
1526.406, 96.93286
1540.87, 96.92019
1957.426, 96.90463
2057.708, 96.81397
2665.667, 96.72583
2650.239, 96.70828
2061.083, 96.613
2100.617, 96.54515
2049.511, 96.4407
573.7283, 96.40248
1995.031, 96.3157
1044.764, 96.25729
503.3381, 96.14917
2201.863, 96.1475
466.2145, 96.00748
472.4821, 95.81526
477.7855, 95.626
3048.956, 95.45724
482.6068, 95.39447
1666.222, 95.33917
400.6456, 95.27061
415.1093, 94.90745
407.3953, 94.77651
2147.383, 94.36916
3026.296, 94.33786
3061.491, 94.27717
2171.971, 94.27142
445.9653, 94.1568
2807.411, 93.88967
645.5648, 93.81227
2802.59, 93.78469
1032.711, 92.88032
1352.359, 92.87416
2027.334, 92.38785
636.4045, 92.2716
669.189, 89.35875
665.332, 89.24876
1062.603, 88.93074
1390.447, 87.71261
1362.002, 86.88214
1340.306, 86.15256
745.3646, 84.6076
1156.617, 83.7179
688.4739, 83.46346
961.3564, 81.94072
1001.855, 81.18629
2824.286, 79.5888
988.3554, 79.40036
1440.106, 77.72951
702.4556, 75.0017
1009.569, 74.54948
1446.856, 72.95261
1463.73, 72.62218
1175.902, 71.55746
884.2165, 70.85028
804.666, 69.31139
1423.232, 66.38696
1472.408, 65.48166
1577.03, 62.01576
1596.797, 61.99148
1305.593, 61.80648
1202.419, 61.39388
1479.64, 59.70585
1080.923, 59.46025
790.6843, 58.825
2947.709, 55.46135
899.6445, 53.93249
1250.149, 51.8653
937.2502, 49.69452
1284.862, 48.13293
1095.387, 47.06096
778.6312, 45.69855
2847.428, 39.25356
2924.568, 36.12796
834.5577, 31.77727
2904.318, 28.06976
##END=

##END=

