##TITLE=Spectrum
##JCAMP-DX=5.00 $$ chemotion-converter-app (0.1.0)
##DATA TYPE=INFRARED SPECTRUM
##DATA CLASS=NTUPLES
##ORIGIN=
##OWNER=
##FIRSTX=549.6402
##LASTX=4001.766
##MINX=549.6402
##MAXX=4001.766
##MINY=0.0
##MAXY=100.0
##NPOINTS=1791
##FIRSTY=77.24512
##XUNITS=1/CM
##YUNITS=TRANSMITTANCE
##XYPOINTS=(XY..XY)
549.6402, 77.24512
551.5688, 74.57596
553.4973, 73.21825
555.4259, 74.98023
557.3544, 77.94134
559.283, 80.04948
561.2115, 81.16888
563.1401, 81.03081
565.0687, 81.07456
566.9973, 81.21761
568.9258, 80.54888
570.8544, 80.0411
572.783, 80.17004
574.7115, 80.07257
576.6401, 80.47784
578.5686, 81.30892
580.4972, 81.3287
582.4257, 81.05788
584.3543, 81.48788
586.2829, 81.45017
588.2114, 81.1452
590.14, 81.34737
592.0685, 81.35011
593.9971, 80.92803
595.9257, 81.10307
597.8542, 81.11127
599.7828, 80.69998
601.7114, 80.82364
603.64, 80.95079
605.5685, 80.3977
607.4971, 80.33014
609.4256, 80.47902
611.3542, 80.05755
613.2827, 79.80852
615.2113, 79.80335
617.1399, 79.04549
619.0684, 78.34335
620.997, 77.57801
622.9255, 75.77023
624.8541, 74.09686
626.7827, 73.63938
628.7112, 73.7632
630.6398, 76.196
632.5684, 79.57793
634.4969, 81.03761
636.4255, 81.16304
638.3541, 81.47376
640.2826, 81.47357
642.2112, 81.12064
644.1397, 81.23692
646.0683, 81.3605
647.9968, 80.98329
649.9254, 81.05532
651.854, 81.17574
653.7825, 80.8156
655.7111, 80.69756
657.6396, 80.77071
659.5682, 80.40032
661.4968, 80.27888
663.4254, 80.41824
665.3539, 80.20795
667.2825, 79.92155
669.2111, 80.03251
671.1396, 79.79626
673.0682, 79.56116
674.9967, 79.61851
676.9253, 79.34039
678.8538, 78.93546
680.7824, 78.8604
682.711, 78.46009
684.6395, 77.91994
686.5681, 77.57986
688.4966, 76.78263
690.4252, 75.14463
692.3538, 72.81622
694.2823, 70.09901
696.2109, 70.12907
698.1395, 74.18721
700.0681, 77.82411
701.9966, 79.03587
703.9252, 79.44595
705.8537, 79.64938
707.7823, 79.43475
709.7108, 79.26137
711.6394, 79.23796
713.5679, 78.88848
715.4965, 78.57896
717.4251, 78.41564
719.3536, 77.91357
721.2822, 77.20586
723.2108, 76.53841
725.1393, 75.12624
727.0679, 72.58607
728.9965, 68.9015
730.925, 67.55602
732.8536, 71.73689
734.7822, 76.02287
736.7107, 77.12251
738.6393, 76.78215
740.5678, 76.26878
742.4964, 75.38108
744.4249, 73.97717
746.3535, 72.63965
748.2821, 70.99678
750.2106, 68.53931
752.1392, 65.05959
754.0677, 59.45214
755.9963, 52.26252
757.9249, 48.9073
759.8535, 52.92027
761.782, 62.86671
763.7106, 73.43501
765.6392, 79.48135
767.5677, 81.27016
769.4963, 81.26552
771.4248, 81.08154
773.3534, 80.47399
775.2819, 79.57214
777.2105, 78.77928
779.139, 77.53962
781.0676, 75.51962
782.9962, 72.96227
784.9247, 68.89388
786.8533, 62.67447
788.7819, 56.92912
790.7104, 58.28275
792.639, 66.91174
794.5676, 74.52776
796.4961, 77.93942
798.4247, 78.67414
800.3533, 78.7118
802.2818, 78.74942
804.2104, 78.39336
806.1389, 78.0413
808.0675, 78.0739
809.996, 77.8181
811.9246, 77.41623
813.8532, 77.30189
815.7817, 76.86492
817.7103, 76.12292
819.6389, 75.69174
821.5674, 75.03972
823.496, 73.79186
825.4246, 72.24792
827.3531, 69.51374
829.2817, 64.8018
831.2103, 61.01258
833.1388, 62.99369
835.0674, 67.19511
836.9959, 67.02015
838.9245, 63.27294
840.853, 60.0487
842.7816, 62.42342
844.7101, 69.92165
846.6387, 76.24243
848.5673, 79.10472
850.4958, 80.31134
852.4244, 80.30185
854.353, 79.58696
856.2816, 78.94382
858.2101, 77.86234
860.1387, 75.92428
862.0672, 73.61653
863.9958, 70.42599
865.9244, 66.34681
867.8529, 63.45639
869.7815, 64.19856
871.71, 68.73697
873.6386, 74.3473
875.5671, 77.4293
877.4957, 77.03712
879.4243, 75.72012
881.3528, 76.89278
883.2814, 80.18693
885.21, 82.69611
887.1385, 83.90817
889.0671, 84.15314
890.9957, 83.90723
892.9242, 84.08218
894.8528, 84.0308
896.7814, 83.67083
898.7099, 83.70375
900.6385, 83.69942
902.567, 83.22318
904.4956, 83.11278
906.4241, 83.07626
908.3527, 82.55848
910.2813, 82.22073
912.2098, 82.16846
914.1384, 81.58803
916.067, 80.9877
917.9955, 80.46512
919.9241, 79.15495
921.8527, 77.37203
923.7812, 76.31818
925.7098, 76.36639
927.6383, 77.72642
929.5669, 79.64792
931.4955, 80.66266
933.424, 80.70921
935.3526, 80.90182
937.2811, 80.8017
939.2097, 80.09272
941.1382, 79.35658
943.0668, 78.03645
944.9954, 76.2602
946.924, 77.18604
948.8525, 79.78477
950.7811, 80.60957
952.7097, 80.49374
954.6382, 80.50279
956.5668, 80.04949
958.4953, 79.46592
960.4239, 79.16917
962.3525, 78.32479
964.281, 77.19087
966.2096, 77.38039
968.1381, 78.11719
970.0667, 78.04395
971.9952, 77.80127
973.9238, 77.19309
975.8524, 75.78286
977.7809, 74.81857
979.7095, 75.20355
981.6381, 75.5937
983.5667, 75.29142
985.4952, 74.70727
987.4238, 73.51306
989.3523, 72.17599
991.2809, 70.77883
993.2094, 68.56789
995.138, 65.64709
997.0666, 62.18144
998.9951, 57.18381
1000.924, 51.53143
1002.852, 50.36806
1004.781, 57.16503
1006.709, 66.31732
1008.638, 72.09887
1010.567, 74.30184
1012.495, 74.28667
1014.424, 73.6758
1016.352, 72.86723
1018.281, 71.37274
1020.209, 69.59595
1022.138, 67.28457
1024.066, 63.36954
1025.995, 57.97148
1027.924, 53.12521
1029.852, 52.91649
1031.781, 58.71233
1033.709, 64.80429
1035.638, 65.37828
1037.566, 63.48545
1039.495, 67.97803
1041.423, 74.70694
1043.352, 76.85016
1045.281, 76.3818
1047.209, 74.58888
1049.138, 72.772
1051.066, 73.91597
1052.995, 76.33463
1054.923, 76.44086
1056.852, 74.80486
1058.781, 72.69123
1060.709, 71.08447
1062.638, 70.98164
1064.566, 72.84074
1066.495, 75.70387
1068.423, 77.61536
1070.352, 78.58315
1072.281, 78.73553
1074.209, 78.2914
1076.138, 78.13754
1078.066, 77.91581
1079.995, 77.25998
1081.923, 76.89799
1083.852, 76.64156
1085.78, 75.93284
1087.709, 75.40659
1089.638, 75.13774
1091.566, 74.44785
1093.495, 73.7455
1095.423, 73.28297
1097.352, 72.30182
1099.28, 70.84001
1101.209, 69.11474
1103.137, 67.36596
1105.066, 66.12839
1106.995, 64.44649
1108.923, 62.07715
1110.852, 61.03919
1112.78, 64.03482
1114.709, 70.12482
1116.637, 74.30268
1118.566, 75.66284
1120.495, 75.7892
1122.423, 75.13462
1124.352, 74.44161
1126.28, 73.88087
1128.209, 72.85387
1130.137, 71.70602
1132.066, 70.56126
1133.995, 68.7627
1135.923, 66.37507
1137.852, 63.73858
1139.78, 60.6044
1141.709, 57.71455
1143.637, 56.49952
1145.566, 56.91833
1147.494, 56.9106
1149.423, 54.88795
1151.352, 51.15016
1153.28, 48.72028
1155.209, 49.02944
1157.137, 51.888
1159.066, 58.12653
1160.994, 66.40176
1162.923, 74.06223
1164.851, 77.8739
1166.78, 78.53255
1168.709, 77.76581
1170.637, 75.58514
1172.566, 72.3952
1174.494, 70.53427
1176.423, 71.79711
1178.351, 74.73852
1180.28, 76.99648
1182.208, 77.73689
1184.137, 77.01427
1186.066, 75.6708
1187.994, 73.80582
1189.923, 71.73713
1191.851, 71.15152
1193.78, 72.76829
1195.708, 74.76595
1197.637, 75.92831
1199.566, 76.07079
1201.494, 74.87196
1203.423, 72.70316
1205.351, 70.47352
1207.28, 69.04086
1209.208, 69.68193
1211.137, 72.0172
1213.066, 73.88469
1214.994, 74.42641
1216.923, 74.38145
1218.851, 73.73624
1220.78, 72.31416
1222.708, 70.57303
1224.637, 68.64888
1226.565, 66.52766
1228.494, 65.01892
1230.423, 64.7677
1232.351, 65.89636
1234.28, 68.22546
1236.208, 70.83676
1238.137, 72.41559
1240.065, 72.79611
1241.994, 72.37037
1243.922, 70.9677
1245.851, 68.62657
1247.78, 65.95263
1249.708, 64.01363
1251.637, 64.53334
1253.565, 66.93159
1255.494, 68.53027
1257.422, 68.26788
1259.351, 66.86882
1261.28, 64.86613
1263.208, 62.47329
1265.137, 60.38396
1267.065, 59.72504
1268.994, 61.42755
1270.922, 65.30209
1272.851, 69.65779
1274.78, 72.6619
1276.708, 74.1563
1278.637, 74.94492
1280.565, 75.37322
1282.494, 75.53204
1284.422, 75.74154
1286.351, 75.90498
1288.279, 75.86392
1290.208, 75.8644
1292.137, 75.76287
1294.065, 75.344
1295.994, 74.94679
1297.922, 74.62336
1299.851, 74.06499
1301.779, 73.50371
1303.708, 73.02451
1305.636, 72.29524
1307.565, 71.44028
1309.494, 70.65682
1311.422, 69.65958
1313.351, 68.48481
1315.279, 67.49158
1317.208, 66.59818
1319.136, 65.59585
1321.065, 64.35899
1322.994, 62.5404
1324.922, 60.1089
1326.851, 57.48487
1328.779, 55.20106
1330.708, 54.38715
1332.636, 56.5127
1334.565, 61.13858
1336.493, 66.01653
1338.422, 69.50542
1340.351, 71.46841
1342.279, 71.99788
1344.208, 71.90158
1346.136, 71.65117
1348.065, 71.09594
1349.993, 70.299
1351.922, 69.60344
1353.85, 68.78288
1355.779, 67.74014
1357.708, 66.78504
1359.636, 65.74355
1361.565, 64.33569
1363.493, 62.64347
1365.422, 60.96765
1367.35, 58.54559
1369.279, 54.73936
1371.208, 50.98744
1373.136, 50.97078
1375.065, 55.31738
1376.993, 57.13906
1378.922, 55.89312
1380.85, 53.27066
1382.779, 50.02246
1384.708, 46.35263
1386.636, 41.69938
1388.565, 36.28799
1390.493, 32.34836
1392.422, 30.64767
1394.35, 32.5777
1396.279, 37.96165
1398.207, 42.38875
1400.136, 43.21941
1402.065, 40.53205
1403.993, 36.54786
1405.922, 33.20782
1407.85, 35.49838
1409.779, 44.08432
1411.707, 55.51664
1413.636, 59.15542
1415.564, 53.0643
1417.493, 44.90051
1419.422, 43.28117
1421.35, 48.43791
1423.279, 55.8997
1425.207, 61.69552
1427.136, 61.81464
1429.064, 59.42941
1430.993, 57.71201
1432.922, 55.98517
1434.85, 54.05599
1436.779, 52.10178
1438.707, 51.13751
1440.636, 50.42641
1442.564, 49.81482
1444.493, 49.43299
1446.422, 48.96601
1448.35, 47.99294
1450.279, 48.67403
1452.207, 50.53164
1454.136, 50.8176
1456.064, 48.54502
1457.993, 44.16628
1459.921, 41.73761
1461.85, 40.38864
1463.779, 39.99406
1465.707, 44.09936
1467.636, 50.70807
1469.564, 57.46644
1471.493, 61.95901
1473.421, 62.87871
1475.35, 59.46735
1477.278, 51.97591
1479.207, 43.01573
1481.136, 37.1034
1483.064, 42.01789
1484.993, 52.91846
1486.921, 62.7244
1488.85, 68.75058
1490.778, 71.52689
1492.707, 72.61221
1494.635, 72.16637
1496.564, 70.46686
1498.493, 67.52683
1500.421, 64.61057
1502.35, 61.29326
1504.278, 58.6743
1506.207, 54.16721
1508.135, 48.44506
1510.064, 45.06323
1511.993, 41.37724
1513.921, 37.29777
1515.85, 33.53656
1517.778, 29.112
1519.707, 27.40852
1521.635, 26.07985
1523.564, 26.4817
1525.493, 27.78316
1527.421, 30.39697
1529.35, 32.81367
1531.278, 34.94588
1533.207, 36.92563
1535.135, 37.88878
1537.064, 37.52302
1538.992, 36.62039
1540.921, 34.51716
1542.85, 34.4551
1544.778, 35.66853
1546.707, 38.52792
1548.635, 41.79805
1550.564, 46.97543
1552.492, 50.49343
1554.421, 54.71643
1556.349, 57.74631
1558.278, 61.79064
1560.207, 67.34577
1562.135, 69.24184
1564.064, 71.20428
1565.992, 73.69296
1567.921, 75.22198
1569.849, 77.00678
1571.778, 78.0055
1573.707, 79.00964
1575.635, 80.00112
1577.564, 80.89389
1579.492, 81.13486
1581.421, 81.41949
1583.349, 81.36436
1585.278, 81.0565
1587.207, 79.66518
1589.135, 77.16511
1591.064, 74.11834
1592.992, 71.42917
1594.921, 70.56602
1596.849, 73.55675
1598.778, 78.57143
1600.706, 82.37177
1602.635, 84.35493
1604.564, 85.825
1606.492, 87.15164
1608.421, 88.6151
1610.349, 89.8876
1612.278, 90.83661
1614.206, 91.37231
1616.135, 92.0461
1618.063, 92.49545
1619.992, 92.75021
1621.921, 93.00212
1623.849, 93.43476
1625.778, 93.59492
1627.706, 93.91296
1629.635, 94.25239
1631.563, 94.57986
1633.492, 94.86942
1635.421, 95.43787
1637.349, 95.6341
1639.278, 95.89867
1641.206, 96.24596
1643.135, 96.61565
1645.063, 96.78648
1646.992, 97.07212
1648.921, 97.13806
1650.849, 97.27859
1652.778, 97.23814
1654.706, 96.80321
1656.635, 96.53112
1658.563, 96.55775
1660.492, 96.80065
1662.42, 97.27347
1664.349, 97.78638
1666.278, 98.28949
1668.206, 98.56825
1670.135, 98.8661
1672.063, 99.09848
1673.992, 99.25643
1675.92, 99.21758
1677.849, 99.35382
1679.777, 99.33097
1681.706, 99.35183
1683.635, 99.37989
1685.563, 99.41348
1687.492, 99.42121
1689.42, 99.54097
1691.349, 99.57422
1693.277, 99.59081
1695.206, 99.51941
1697.135, 99.45171
1699.063, 99.33232
1700.992, 99.0429
1702.92, 98.98917
1704.849, 98.94691
1706.777, 98.86869
1708.706, 98.91308
1710.635, 98.79845
1712.563, 98.80585
1714.492, 98.9528
1716.42, 99.11395
1718.349, 99.17325
1720.277, 99.27987
1722.206, 99.20654
1724.134, 99.09448
1726.063, 99.09463
1727.992, 99.1225
1729.92, 99.00723
1731.849, 98.99709
1733.777, 98.89359
1735.706, 98.82137
1737.634, 99.04025
1739.563, 99.44765
1741.491, 99.66611
1743.42, 99.83868
1745.349, 99.97752
1747.277, 100
1749.206, 99.93713
1751.134, 99.96996
1753.063, 99.8347
1754.991, 99.76546
1756.92, 99.68571
1758.849, 99.64217
1760.777, 99.57796
1762.706, 99.6282
1764.634, 99.62974
1766.563, 99.55878
1768.491, 99.50954
1770.42, 99.54415
1772.349, 99.28179
1774.277, 99.13677
1776.206, 98.97423
1778.134, 98.79639
1780.063, 98.81564
1781.991, 99.0323
1783.92, 99.0434
1785.848, 99.01989
1787.777, 99.08738
1789.706, 99.11724
1791.634, 99.01224
1793.563, 99.00436
1795.491, 98.96219
1797.42, 98.90121
1799.348, 98.91994
1801.277, 98.88109
1803.205, 98.65261
1805.134, 98.54367
1807.063, 98.48157
1808.991, 98.35368
1810.92, 98.32343
1812.848, 98.40269
1814.777, 98.31124
1816.705, 98.25065
1818.634, 98.36213
1820.563, 98.40547
1822.491, 98.36523
1824.42, 98.40092
1826.348, 98.38889
1828.277, 98.47005
1830.205, 98.67905
1832.134, 98.76782
1834.063, 98.67327
1835.991, 98.65224
1837.92, 98.61842
1839.848, 98.49317
1841.777, 98.46619
1843.705, 98.54202
1845.634, 98.46793
1847.562, 98.50486
1849.491, 98.65076
1851.42, 98.69769
1853.348, 98.66779
1855.277, 98.75996
1857.205, 98.74689
1859.134, 98.6874
1861.062, 98.76411
1862.991, 98.83569
1864.919, 98.75807
1866.848, 98.73705
1868.777, 98.65466
1870.705, 98.48299
1872.634, 98.42821
1874.562, 98.43209
1876.491, 98.30613
1878.419, 98.2662
1880.348, 98.30067
1882.276, 98.18326
1884.205, 97.95105
1886.134, 97.77708
1888.062, 97.45322
1889.991, 97.06994
1891.919, 97.17028
1893.848, 97.51838
1895.776, 97.70209
1897.705, 97.80515
1899.634, 97.75198
1901.562, 97.57532
1903.491, 97.50622
1905.419, 97.58411
1907.348, 97.57663
1909.276, 97.58194
1911.205, 97.61042
1913.133, 97.49271
1915.062, 97.24761
1916.991, 96.93153
1918.919, 96.3166
1920.848, 95.88674
1922.776, 96.07196
1924.705, 96.74986
1926.633, 97.32381
1928.562, 97.74089
1930.49, 97.94073
1932.419, 97.94657
1934.348, 97.93394
1936.276, 97.91694
1938.205, 97.75539
1940.133, 97.60289
1942.062, 97.4468
1943.99, 97.2494
1945.919, 97.10385
1947.848, 96.91959
1949.776, 96.50343
1951.705, 96.04198
1953.633, 95.95572
1955.562, 96.32091
1957.49, 96.80456
1959.419, 97.21793
1961.348, 97.39701
1963.276, 97.4276
1965.205, 97.50775
1967.133, 97.6348
1969.062, 97.71124
1970.99, 97.83767
1972.919, 97.92371
1974.847, 97.9012
1976.776, 97.86753
1978.705, 97.86021
1980.633, 97.76081
1982.562, 97.70773
1984.49, 97.72545
1986.419, 97.72481
1988.347, 97.68407
1990.276, 97.67366
1992.204, 97.60186
1994.133, 97.55057
1996.062, 97.58702
1997.99, 97.60904
1999.919, 97.59836
2001.847, 97.6843
2003.776, 97.74543
2005.704, 97.70869
2007.633, 97.66221
2009.562, 97.59972
2011.49, 97.45217
2013.419, 97.34195
2015.347, 97.28329
2017.276, 97.22153
2019.204, 97.20879
2021.133, 97.25689
2023.062, 97.24021
2024.99, 97.23982
2026.919, 97.31806
2028.847, 97.37534
2030.776, 97.40743
2032.704, 97.49505
2034.633, 97.48915
2036.561, 97.4165
2038.49, 97.44779
2040.419, 97.52722
2042.347, 97.52884
2044.276, 97.58241
2046.204, 97.62469
2048.133, 97.59387
2050.061, 97.58172
2051.99, 97.60035
2053.918, 97.52176
2055.847, 97.48098
2057.776, 97.49568
2059.704, 97.43291
2061.633, 97.35787
2063.561, 97.376
2065.49, 97.31544
2067.418, 97.20268
2069.347, 97.14465
2071.276, 97.06213
2073.204, 96.95406
2075.133, 96.99432
2077.061, 97.01585
2078.99, 96.90689
2080.918, 96.80685
2082.847, 96.72093
2084.775, 96.51718
2086.704, 96.368
2088.633, 96.33617
2090.561, 96.30324
2092.49, 96.32263
2094.418, 96.45001
2096.347, 96.47169
2098.275, 96.43793
2100.204, 96.50713
2102.133, 96.57232
2104.061, 96.59254
2105.99, 96.72671
2107.918, 96.81807
2109.847, 96.76115
2111.775, 96.70667
2113.704, 96.66367
2115.633, 96.50394
2117.561, 96.44669
2119.49, 96.52229
2121.418, 96.53905
2123.347, 96.53648
2125.275, 96.60645
2127.204, 96.60059
2129.132, 96.56717
2131.061, 96.6032
2132.99, 96.57619
2134.918, 96.47864
2136.847, 96.4929
2138.775, 96.49046
2140.704, 96.39463
2142.632, 96.35571
2144.561, 96.33173
2146.49, 96.18028
2148.418, 96.11301
2150.347, 96.1368
2152.275, 96.09173
2154.204, 96.09132
2156.132, 96.21823
2158.061, 96.24574
2159.99, 96.2287
2161.918, 96.28088
2163.846, 96.28693
2165.775, 96.25067
2167.704, 96.28699
2169.632, 96.27598
2171.561, 96.23823
2173.489, 96.24
2175.418, 96.24794
2177.346, 96.19074
2179.275, 96.23978
2181.204, 96.34346
2183.132, 96.34839
2185.061, 96.36998
2186.989, 96.45909
2188.918, 96.44133
2190.846, 96.4249
2192.775, 96.49586
2194.704, 96.49169
2196.632, 96.43344
2198.561, 96.49764
2200.489, 96.53848
2202.418, 96.49576
2204.346, 96.50372
2206.275, 96.49261
2208.203, 96.33586
2210.132, 96.23749
2212.061, 96.20613
2213.989, 96.13884
2215.918, 96.1593
2217.846, 96.2888
2219.775, 96.33956
2221.703, 96.41602
2223.632, 96.56691
2225.561, 96.63153
2227.489, 96.63001
2229.418, 96.6759
2231.346, 96.63713
2233.275, 96.50927
2235.203, 96.43796
2237.132, 96.38854
2239.061, 96.31257
2240.989, 96.34929
2242.917, 96.4013
2244.846, 96.36908
2246.775, 96.34914
2248.703, 96.38328
2250.632, 96.36047
2252.56, 96.37289
2254.489, 96.47682
2256.417, 96.53666
2258.346, 96.54617
2260.275, 96.6133
2262.203, 96.59004
2264.132, 96.50968
2266.06, 96.49195
2267.989, 96.438
2269.917, 96.30409
2271.846, 96.25115
2273.775, 96.22213
2275.703, 96.12095
2277.632, 96.06109
2279.56, 96.05971
2281.489, 95.99664
2283.417, 96.00606
2285.346, 96.08015
2287.274, 96.06087
2289.203, 96.0287
2291.132, 96.08748
2293.06, 96.05692
2294.989, 95.97935
2296.917, 95.97338
2298.846, 95.95661
2300.774, 95.90373
2302.703, 95.94646
2304.632, 95.96794
2306.56, 95.90831
2308.489, 95.8958
2310.417, 95.89601
2312.346, 95.8146
2314.274, 95.82526
2316.203, 95.89806
2318.132, 95.91225
2320.06, 95.94472
2321.989, 96.06637
2323.917, 96.0769
2325.846, 96.02151
2327.774, 96.01521
2329.703, 95.9921
2331.631, 95.94962
2333.56, 96.04079
2335.489, 96.13504
2337.417, 96.16555
2339.346, 96.22791
2341.274, 96.28226
2343.203, 96.22632
2345.131, 96.19692
2347.06, 96.15856
2348.989, 96.0839
2350.917, 96.05271
2352.846, 96.10155
2354.774, 96.09457
2356.703, 96.07994
2358.631, 96.11335
2360.56, 96.12797
2362.489, 96.14267
2364.417, 96.25168
2366.345, 96.275
2368.274, 96.26756
2370.203, 96.32139
2372.131, 96.35125
2374.06, 96.30791
2375.988, 96.31032
2377.917, 96.31105
2379.845, 96.25531
2381.774, 96.23258
2383.703, 96.25235
2385.631, 96.18449
2387.56, 96.15232
2389.488, 96.15781
2391.417, 96.08562
2393.345, 96.02988
2395.274, 96.07911
2397.203, 96.05347
2399.131, 95.93711
2401.06, 95.8851
2402.988, 95.84904
2404.917, 95.77716
2406.845, 95.80099
2408.774, 95.8393
2410.702, 95.80885
2412.631, 95.82813
2414.56, 95.86992
2416.488, 95.79826
2418.417, 95.72939
2420.345, 95.69105
2422.274, 95.59536
2424.202, 95.52004
2426.131, 95.56251
2428.06, 95.56992
2429.988, 95.5312
2431.917, 95.51335
2433.845, 95.43775
2435.774, 95.29766
2437.702, 95.28495
2439.631, 95.33649
2441.559, 95.33252
2443.488, 95.33791
2445.417, 95.32803
2447.345, 95.2272
2449.274, 95.18356
2451.202, 95.1924
2453.131, 95.1297
2455.059, 95.07545
2456.988, 95.10486
2458.917, 95.08085
2460.845, 95.07257
2462.774, 95.13095
2464.702, 95.13974
2466.631, 95.07898
2468.559, 95.04929
2470.488, 94.9763
2472.417, 94.87637
2474.345, 94.90845
2476.274, 95.03712
2478.202, 95.11198
2480.131, 95.23594
2482.059, 95.36137
2483.988, 95.38495
2485.916, 95.40774
2487.845, 95.48983
2489.773, 95.49125
2491.702, 95.47299
2493.631, 95.49937
2495.559, 95.48743
2497.488, 95.43456
2499.416, 95.46286
2501.345, 95.46913
2503.273, 95.42036
2505.202, 95.4213
2507.131, 95.39827
2509.059, 95.26052
2510.988, 95.17812
2512.916, 95.13255
2514.845, 95.015
2516.773, 94.92624
2518.702, 94.90335
2520.63, 94.78408
2522.559, 94.67416
2524.488, 94.6632
2526.416, 94.6151
2528.345, 94.52039
2530.273, 94.51667
2532.202, 94.50583
2534.13, 94.43389
2536.059, 94.41048
2537.988, 94.40156
2539.916, 94.34554
2541.845, 94.36485
2543.773, 94.3974
2545.702, 94.35851
2547.63, 94.35232
2549.559, 94.42854
2551.488, 94.46427
2553.416, 94.50108
2555.344, 94.60073
2557.273, 94.67081
2559.202, 94.71735
2561.13, 94.83678
2563.059, 94.91383
2564.987, 94.95986
2566.916, 95.04498
2568.844, 95.09044
2570.773, 95.05292
2572.702, 95.07848
2574.63, 95.10717
2576.559, 95.0736
2578.487, 95.07628
2580.416, 95.11518
2582.344, 95.07642
2584.273, 95.02776
2586.202, 94.98222
2588.13, 94.87704
2590.059, 94.74885
2591.987, 94.69412
2593.916, 94.63871
2595.844, 94.61107
2597.773, 94.68969
2599.701, 94.77443
2601.63, 94.80398
2603.559, 94.88693
2605.487, 94.956
2607.416, 94.95576
2609.344, 94.92809
2611.273, 94.89308
2613.201, 94.79403
2615.13, 94.71184
2617.059, 94.65695
2618.987, 94.57583
2620.916, 94.54006
2622.844, 94.60838
2624.773, 94.64045
2626.701, 94.65243
2628.63, 94.71914
2630.559, 94.75494
2632.487, 94.74046
2634.416, 94.78517
2636.344, 94.82292
2638.273, 94.81715
2640.201, 94.84164
2642.13, 94.88109
2644.058, 94.86073
2645.987, 94.84731
2647.916, 94.82885
2649.844, 94.75456
2651.773, 94.68971
2653.701, 94.67685
2655.63, 94.61269
2657.558, 94.54223
2659.487, 94.5117
2661.416, 94.44117
2663.344, 94.32084
2665.273, 94.24615
2667.201, 94.13854
2669.13, 93.98505
2671.058, 93.85831
2672.987, 93.74197
2674.916, 93.597
2676.844, 93.51174
2678.772, 93.4537
2680.701, 93.37296
2682.63, 93.32317
2684.558, 93.3307
2686.487, 93.28259
2688.415, 93.2458
2690.344, 93.23666
2692.272, 93.16348
2694.201, 93.05435
2696.13, 92.98013
2698.058, 92.84922
2699.987, 92.68076
2701.915, 92.53022
2703.844, 92.3537
2705.772, 92.13899
2707.701, 91.98038
2709.63, 91.83896
2711.558, 91.63674
2713.487, 91.39191
2715.415, 91.07442
2717.344, 90.52833
2719.272, 89.79794
2721.201, 89.24601
2723.129, 89.47637
2725.058, 90.43993
2726.987, 91.38824
2728.915, 91.86679
2730.844, 92.05523
2732.772, 92.14153
2734.701, 92.13158
2736.629, 92.04174
2738.558, 91.98405
2740.487, 91.90543
2742.415, 91.75087
2744.344, 91.56947
2746.272, 91.38203
2748.201, 91.13368
2750.129, 90.91894
2752.058, 90.73057
2753.987, 90.47628
2755.915, 90.18315
2757.844, 89.91293
2759.772, 89.57108
2761.701, 89.16512
2763.629, 88.71786
2765.558, 88.1315
2767.486, 87.2971
2769.415, 86.20374
2771.344, 85.05582
2773.272, 84.33454
2775.201, 83.66516
2777.129, 82.24444
2779.058, 80.22296
2780.986, 79.29517
2782.915, 80.11994
2784.844, 80.66559
2786.772, 79.92592
2788.701, 79.2574
2790.629, 79.49928
2792.558, 79.66633
2794.486, 78.88787
2796.415, 77.66003
2798.344, 77.75258
2800.272, 80.19556
2802.2, 83.08319
2804.129, 84.54179
2806.058, 84.74731
2807.986, 84.52119
2809.915, 84.28492
2811.843, 84.08253
2813.772, 83.70695
2815.7, 83.0332
2817.629, 81.97207
2819.558, 80.501
2821.486, 78.65775
2823.415, 76.57164
2825.343, 74.12265
2827.272, 71.70341
2829.2, 71.03192
2831.129, 73.50494
2833.058, 77.65514
2834.986, 81.11951
2836.915, 83.10982
2838.843, 83.94453
2840.772, 84.06696
2842.7, 83.79308
2844.629, 83.14573
2846.557, 82.18474
2848.486, 81.12789
2850.415, 80.11915
2852.343, 79.06597
2854.272, 78.00516
2856.2, 76.93864
2858.129, 75.69214
2860.057, 74.23765
2861.986, 72.98273
2863.915, 72.37992
2865.843, 72.45153
2867.772, 72.75881
2869.7, 73.04654
2871.629, 73.39224
2873.557, 73.90662
2875.486, 74.47881
2877.415, 75.08186
2879.343, 75.70517
2881.271, 76.29224
2883.2, 76.74343
2885.129, 77.10761
2887.057, 77.41998
2888.986, 77.756
2890.914, 78.20332
2892.843, 78.77886
2894.771, 79.35934
2896.7, 79.99541
2898.629, 80.72738
2900.557, 81.49878
2902.486, 82.18311
2904.414, 82.73014
2906.343, 83.01273
2908.271, 83.0097
2910.2, 82.78677
2912.129, 82.36088
2914.057, 81.68938
2915.986, 80.94786
2917.914, 80.2282
2919.843, 79.52487
2921.771, 78.87914
2923.7, 78.38371
2925.628, 77.97923
2927.557, 77.74295
2929.486, 77.69904
2931.414, 77.80633
2933.343, 77.8957
2935.271, 77.71861
2937.2, 76.87138
2939.128, 75.20202
2941.057, 73.27147
2942.986, 72.47944
2944.914, 73.1535
2946.843, 73.85592
2948.771, 73.93404
2950.7, 75.1312
2952.628, 78.06364
2954.557, 80.94918
2956.486, 82.89857
2958.414, 84.47865
2960.343, 86.12347
2962.271, 87.69572
2964.2, 88.84279
2966.128, 89.3481
2968.057, 88.84277
2969.985, 86.84895
2971.914, 83.06413
2973.843, 78.95404
2975.771, 78.09645
2977.7, 83.19497
2979.628, 90.58267
2981.557, 94.95158
2983.485, 96.49287
2985.414, 96.89294
2987.343, 96.8393
2989.271, 96.58704
2991.2, 96.2205
2993.128, 95.62045
2995.057, 94.77
2996.985, 93.69262
2998.914, 92.3357
3000.842, 90.91416
3002.771, 89.84519
3004.699, 89.24966
3006.628, 89.0628
3008.557, 89.15678
3010.485, 89.5591
3012.414, 90.49518
3014.342, 91.93639
3016.271, 93.471
3018.199, 94.79436
3020.128, 95.872
3022.057, 96.58375
3023.985, 96.84998
3025.914, 96.85526
3027.842, 96.80646
3029.771, 96.67677
3031.699, 96.5018
3033.628, 96.48557
3035.557, 96.73512
3037.485, 97.06252
3039.414, 97.27271
3041.342, 97.28725
3043.271, 97.19624
3045.199, 97.18517
3047.128, 97.22374
3049.056, 97.03976
3050.985, 96.63452
3052.914, 96.22411
3054.842, 96.04555
3056.771, 96.05536
3058.699, 96.24531
3060.628, 96.73219
3062.556, 97.48204
3064.485, 98.21813
3066.414, 98.69379
3068.342, 98.94161
3070.271, 99.10352
3072.199, 99.18059
3074.128, 99.1431
3076.056, 99.06494
3077.985, 98.94484
3079.913, 98.74087
3081.842, 98.57062
3083.771, 98.50835
3085.699, 98.61922
3087.628, 98.90323
3089.556, 99.21951
3091.485, 99.41912
3093.413, 99.51605
3095.342, 99.57438
3097.271, 99.58347
3099.199, 99.56607
3101.128, 99.61229
3103.056, 99.61283
3104.985, 99.53969
3106.913, 99.50198
3108.842, 99.48454
3110.771, 99.43312
3112.699, 99.41046
3114.627, 99.3839
3116.556, 99.32807
3118.485, 99.32224
3120.413, 99.35156
3122.342, 99.33979
3124.27, 99.34151
3126.199, 99.37234
3128.127, 99.36136
3130.056, 99.33276
3131.985, 99.34731
3133.913, 99.33642
3135.842, 99.30048
3137.77, 99.3218
3139.699, 99.33133
3141.627, 99.28923
3143.556, 99.29144
3145.485, 99.28952
3147.413, 99.24312
3149.342, 99.24883
3151.27, 99.29762
3153.199, 99.24721
3155.127, 99.19592
3157.056, 99.18745
3158.984, 99.12693
3160.913, 99.07873
3162.842, 99.08342
3164.77, 99.05738
3166.699, 99.04781
3168.627, 99.07342
3170.556, 99.07154
3172.484, 99.03333
3174.413, 99.04745
3176.342, 99.0552
3178.27, 99.03194
3180.199, 99.03431
3182.127, 99.01588
3184.056, 98.95787
3185.984, 98.95962
3187.913, 98.97991
3189.842, 98.97677
3191.77, 98.97551
3193.698, 98.95897
3195.627, 98.897
3197.556, 98.87218
3199.484, 98.8821
3201.413, 98.86295
3203.341, 98.80965
3205.27, 98.79911
3207.198, 98.78867
3209.127, 98.7461
3211.056, 98.74193
3212.984, 98.77478
3214.913, 98.7558
3216.841, 98.76928
3218.77, 98.7735
3220.698, 98.69235
3222.627, 98.64277
3224.556, 98.639
3226.484, 98.59867
3228.413, 98.59258
3230.341, 98.62305
3232.27, 98.62649
3234.198, 98.58805
3236.127, 98.53465
3238.055, 98.49017
3239.984, 98.47367
3241.913, 98.4906
3243.841, 98.52068
3245.77, 98.52062
3247.698, 98.51176
3249.627, 98.46631
3251.555, 98.41509
3253.484, 98.43692
3255.413, 98.47843
3257.341, 98.40662
3259.27, 98.36634
3261.198, 98.36228
3263.127, 98.34516
3265.055, 98.3356
3266.984, 98.38493
3268.913, 98.44402
3270.841, 98.46444
3272.77, 98.45102
3274.698, 98.39975
3276.627, 98.29592
3278.555, 98.28771
3280.484, 98.26678
3282.412, 98.20568
3284.341, 98.19056
3286.27, 98.19054
3288.198, 98.1581
3290.127, 98.22188
3292.055, 98.27753
3293.984, 98.21561
3295.912, 98.16454
3297.841, 98.10735
3299.77, 98.00833
3301.698, 97.99139
3303.627, 98.06207
3305.555, 98.05575
3307.484, 97.9865
3309.412, 97.9109
3311.341, 97.77493
3313.27, 97.66238
3315.198, 97.63066
3317.126, 97.62194
3319.055, 97.57434
3320.984, 97.56335
3322.912, 97.58246
3324.841, 97.56432
3326.769, 97.47975
3328.698, 97.39561
3330.626, 97.31483
3332.555, 97.254
3334.484, 97.2628
3336.412, 97.30038
3338.341, 97.25008
3340.269, 97.16099
3342.198, 97.07962
3344.126, 96.95879
3346.055, 96.89025
3347.984, 96.89924
3349.912, 96.86916
3351.841, 96.78408
3353.769, 96.66405
3355.698, 96.54475
3357.626, 96.48392
3359.555, 96.49765
3361.483, 96.38004
3363.412, 96.28754
3365.341, 96.3129
3367.269, 96.29028
3369.198, 96.18615
3371.126, 96.05936
3373.055, 95.89931
3374.983, 95.80997
3376.912, 95.77122
3378.841, 95.71063
3380.769, 95.60162
3382.698, 95.51398
3384.626, 95.45744
3386.555, 95.39302
3388.483, 95.39395
3390.412, 95.47578
3392.341, 95.41526
3394.269, 95.30847
3396.198, 95.27334
3398.126, 95.27621
3400.055, 95.29645
3401.983, 95.23589
3403.912, 95.05894
3405.84, 94.95276
3407.769, 94.98479
3409.698, 95.00058
3411.626, 94.9432
3413.555, 94.90923
3415.483, 94.82506
3417.412, 94.7625
3419.34, 94.77698
3421.269, 94.76986
3423.198, 94.68149
3425.126, 94.68864
3427.055, 94.78041
3428.983, 94.82179
3430.912, 94.77276
3432.84, 94.82523
3434.769, 94.8748
3436.698, 94.84341
3438.626, 94.7695
3440.554, 94.6973
3442.483, 94.65233
3444.412, 94.71389
3446.34, 94.77022
3448.269, 94.71571
3450.197, 94.71128
3452.126, 94.75894
3454.054, 94.76546
3455.983, 94.80118
3457.912, 94.90308
3459.84, 94.98171
3461.769, 94.95502
3463.697, 95.01563
3465.626, 95.1133
3467.554, 95.17499
3469.483, 95.19139
3471.412, 95.1155
3473.34, 95.06445
3475.269, 95.1222
3477.197, 95.21839
3479.126, 95.31155
3481.054, 95.26534
3482.983, 95.2606
3484.911, 95.32816
3486.84, 95.38067
3488.769, 95.39507
3490.697, 95.41521
3492.626, 95.45013
3494.554, 95.52291
3496.483, 95.55164
3498.411, 95.57619
3500.34, 95.65987
3502.269, 95.71445
3504.197, 95.61747
3506.126, 95.65133
3508.054, 95.68806
3509.983, 95.66739
3511.911, 95.78948
3513.84, 95.89246
3515.769, 95.8803
3517.697, 95.91708
3519.625, 95.96988
3521.554, 96.11221
3523.483, 96.20293
3525.411, 96.20199
3527.34, 96.1524
3529.268, 96.16808
3531.197, 96.24921
3533.125, 96.34115
3535.054, 96.42424
3536.983, 96.46533
3538.911, 96.48864
3540.84, 96.60848
3542.768, 96.74629
3544.697, 96.80891
3546.625, 96.68947
3548.554, 96.71106
3550.483, 96.84114
3552.411, 96.78239
3554.34, 96.77069
3556.268, 96.89834
3558.197, 96.97868
3560.125, 97.03333
3562.054, 97.08298
3563.982, 97.1188
3565.911, 97.07599
3567.84, 97.07858
3569.768, 97.18304
3571.697, 97.22334
3573.625, 97.26508
3575.554, 97.33041
3577.482, 97.38293
3579.411, 97.50387
3581.34, 97.62518
3583.268, 97.74203
3585.197, 97.88554
3587.125, 97.79784
3589.054, 97.70253
3590.982, 97.86056
3592.911, 97.91398
3594.84, 97.86362
3596.768, 97.95795
3598.697, 98.15511
3600.625, 98.17371
3602.554, 98.20622
3604.482, 98.31615
3606.411, 98.33647
3608.339, 98.20129
3610.268, 98.26781
3612.197, 98.34993
3614.125, 98.34711
3616.054, 98.47144
3617.982, 98.52464
3619.911, 98.52007
3621.839, 98.6362
3623.768, 98.72515
3625.697, 98.79294
3627.625, 98.67987
3629.554, 98.43595
3631.482, 98.65878
3633.411, 98.76212
3635.339, 98.83567
3637.268, 98.94795
3639.196, 98.98532
3641.125, 99.03129
3643.053, 99.09585
3644.982, 99.25347
3646.911, 99.18858
3648.839, 99.15015
3650.768, 99.0819
3652.696, 99.18766
3654.625, 99.30183
3656.553, 99.26785
3658.482, 99.46097
3660.411, 99.54031
3662.339, 99.44598
3664.268, 99.38093
3666.196, 99.39668
3668.125, 99.39177
3670.053, 99.08639
3671.982, 99.19307
3673.91, 99.34464
3675.839, 98.92714
3677.768, 99.09602
3679.696, 99.24534
3681.625, 99.32529
3683.553, 99.36946
3685.482, 99.4995
3687.41, 99.67995
3689.339, 99.52455
3691.268, 99.39845
3693.196, 99.48561
3695.125, 99.60242
3697.053, 99.56821
3698.982, 99.59617
3700.91, 99.53127
3702.839, 99.46468
3704.768, 99.53701
3706.696, 99.57841
3708.625, 99.54778
3710.553, 99.45043
3712.482, 99.3234
3714.41, 99.46739
3716.339, 99.60428
3718.267, 99.57554
3720.196, 99.55354
3722.125, 99.56699
3724.053, 99.61362
3725.982, 99.55228
3727.91, 99.52734
3729.839, 99.67667
3731.767, 99.64606
3733.696, 99.71736
3735.625, 99.65991
3737.553, 99.63708
3739.482, 99.68423
3741.41, 99.70316
3743.339, 99.5523
3745.267, 99.21732
3747.196, 99.43274
3749.125, 99.33797
3751.053, 99.16983
3752.981, 99.27891
3754.91, 99.46267
3756.839, 99.51193
3758.767, 99.45863
3760.696, 99.39114
3762.624, 99.49503
3764.553, 99.49928
3766.481, 99.47189
3768.41, 99.55788
3770.339, 99.44849
3772.267, 99.47507
3774.196, 99.54324
3776.124, 99.60413
3778.053, 99.63002
3779.981, 99.48831
3781.91, 99.54552
3783.839, 99.5591
3785.767, 99.47849
3787.696, 99.54112
3789.624, 99.56733
3791.553, 99.53489
3793.481, 99.56554
3795.41, 99.53053
3797.338, 99.41541
3799.267, 99.54174
3801.196, 99.29115
3803.124, 99.25773
3805.053, 99.46066
3806.981, 99.30686
3808.91, 99.36818
3810.838, 99.46658
3812.767, 99.50466
3814.696, 99.50957
3816.624, 99.28611
3818.553, 99.43398
3820.481, 99.26038
3822.41, 99.08916
3824.338, 99.3538
3826.267, 99.37423
3828.196, 99.34224
3830.124, 99.40796
3832.052, 99.33073
3833.981, 99.40903
3835.91, 99.52351
3837.838, 99.35773
3839.767, 99.18762
3841.695, 99.33522
3843.624, 99.43433
3845.552, 99.47752
3847.481, 99.4977
3849.41, 99.50581
3851.338, 99.48813
3853.267, 99.03186
3855.195, 99.12971
3857.124, 99.29724
3859.052, 99.33949
3860.981, 99.32237
3862.91, 99.2544
3864.838, 99.11864
3866.767, 99.21139
3868.695, 99.24212
3870.624, 98.98566
3872.552, 99.15391
3874.481, 99.07233
3876.409, 99.1259
3878.338, 99.2107
3880.267, 99.05984
3882.195, 99.13627
3884.124, 99.35567
3886.052, 99.18298
3887.981, 99.26457
3889.909, 99.29433
3891.838, 99.12946
3893.767, 99.13789
3895.695, 99.22236
3897.624, 99.2534
3899.552, 99.15703
3901.481, 99.10413
3903.409, 99.09234
3905.338, 99.05308
3907.267, 99.10054
3909.195, 99.13579
3911.124, 99.15139
3913.052, 99.134
3914.981, 99.14249
3916.909, 99.06747
3918.838, 99.02628
3920.766, 99.05615
3922.695, 99.15443
3924.624, 99.0741
3926.552, 99.03182
3928.481, 99.05684
3930.409, 99.04597
3932.338, 98.96635
3934.266, 99.01013
3936.195, 99.12856
3938.124, 99.13588
3940.052, 99.14042
3941.981, 99.13301
3943.909, 99.06063
3945.838, 99.12656
3947.766, 99.17122
3949.695, 99.15936
3951.624, 99.16998
3953.552, 99.20974
3955.48, 99.22414
3957.409, 99.19495
3959.338, 99.1747
3961.266, 99.22368
3963.195, 99.22999
3965.123, 99.24757
3967.052, 99.21853
3968.98, 99.17602
3970.909, 99.18329
3972.838, 99.21359
3974.766, 99.19968
3976.695, 99.20911
3978.623, 99.21009
3980.552, 99.19741
3982.48, 99.16149
3984.409, 99.18565
3986.338, 99.153
3988.266, 99.13464
3990.195, 99.12209
3992.123, 99.12807
3994.052, 99.08409
3995.98, 99.06249
3997.909, 99.0472
3999.837, 98.97552
4001.766, 0
##END=$$ End of the data block
