##TITLE=compound 6-dioxetane (1)
##JCAMP-DX=5.0
##DATA TYPE=LINK
##BLOCKS=1


$$ === CHEMSPECTRA SPECTRUM ORIG ===
##TITLE=compound 6-dioxetane (1)
##JCAMP-DX=5.00
##DATA TYPE=INFRARED SPECTRUM
##DATA CLASS=XYDATA
##$CSCATEGORY=SPECTRUM
##ORIGIN=
##OWNER=
##XUNITS=1/CM
##YUNITS=TRANSMITTANCE
##XFACTOR=1.0
##YFACTOR=1.0
##FIRSTX=399.6813
##LASTX=4000.188
##MAXX=4000.188
##MAXY=106.7082
##MINX=399.6813
##MINY=0.0
##NPOINTS=7469
##XYDATA= (XY..XY)
399.6813, 0.0
400.1635, 91.29534
400.6456, 91.62591
401.1277, 91.83982
401.6098, 91.89904
402.0919, 91.80647
402.5741, 91.60744
403.0562, 91.37685
403.5383, 91.19404
404.0204, 91.11674
404.5026, 91.16496
404.9847, 91.32148
405.4668, 91.54452
405.9489, 91.78757
406.4311, 92.01587
406.9132, 92.21552
407.3953, 92.39149
407.8774, 92.55717
408.3596, 92.72147
408.8417, 92.87941
409.3238, 93.01007
409.8059, 93.08424
410.2881, 93.07648
410.7702, 92.97784
411.2523, 92.80202
411.7344, 92.5829
412.2166, 92.36504
412.6987, 92.19166
413.1808, 92.09376
413.6629, 92.08407
414.1451, 92.15564
414.6272, 92.28626
415.1093, 92.44564
415.5914, 92.60352
416.0736, 92.73553
416.5557, 92.82656
417.0378, 92.87125
417.52, 92.87358
418.0021, 92.8453
418.4842, 92.80383
418.9663, 92.76847
419.4484, 92.75583
419.9306, 92.77596
420.4127, 92.83089
420.8948, 92.91534
421.377, 93.02039
421.8591, 93.1368
422.3412, 93.25819
422.8233, 93.38183
423.3055, 93.50768
423.7876, 93.63571
424.2697, 93.76336
424.7518, 93.88367
425.2339, 93.986
425.7161, 94.05841
426.1982, 94.09179
426.6803, 94.08308
427.1624, 94.03705
427.6446, 93.96535
428.1267, 93.88364
428.6088, 93.8073
429.0909, 93.74805
429.5731, 93.7114
430.0552, 93.69701
430.5373, 93.70034
431.0194, 93.71548
431.5016, 93.73769
431.9837, 93.76446
432.4658, 93.79488
432.9479, 93.82822
433.4301, 93.86216
433.9122, 93.89223
434.3943, 93.91264
434.8764, 93.91812
435.3586, 93.90644
435.8407, 93.88002
436.3228, 93.8455
436.8049, 93.81187
437.287, 93.78665
437.7692, 93.77256
438.2513, 93.76532
438.7334, 93.75368
439.2155, 93.72194
439.6977, 93.65424
440.1798, 93.53927
440.6619, 93.37432
441.144, 93.16759
441.6262, 92.93765
442.1083, 92.71046
442.5904, 92.51437
443.0725, 92.37444
443.5547, 92.30753
444.0368, 92.31845
444.5189, 92.39901
445.001, 92.52913
445.4832, 92.68125
445.9653, 92.82625
446.4474, 92.93967
446.9295, 93.00645
447.4117, 93.02269
447.8938, 92.99326
448.3759, 92.92726
448.858, 92.83205
449.3401, 92.7092
449.8223, 92.55338
450.3044, 92.35548
450.7865, 92.10842
451.2687, 91.81369
451.7508, 91.4854
452.2329, 91.1506
452.715, 90.84413
453.1971, 90.60072
453.6793, 90.44644
454.1614, 90.39336
454.6435, 90.43886
455.1257, 90.56913
455.6078, 90.76408
456.0899, 91.00179
456.572, 91.26044
457.0542, 91.51852
457.5363, 91.75418
458.0184, 91.94524
458.5005, 92.07148
458.9827, 92.11809
459.4648, 92.07915
459.9469, 91.95979
460.429, 91.77479
460.9112, 91.54507
461.3933, 91.29237
461.8754, 91.03485
462.3575, 90.78569
462.8397, 90.5546
463.3218, 90.35133
463.8039, 90.18873
464.286, 90.08311
464.7682, 90.05121
465.2503, 90.10443
465.7324, 90.24335
466.2145, 90.45464
466.6967, 90.71308
467.1788, 90.98743
467.6609, 91.24899
468.143, 91.47862
468.6252, 91.66987
469.1073, 91.827
469.5894, 91.95901
470.0715, 92.07295
470.5536, 92.16953
471.0358, 92.2422
471.5179, 92.28092
472.0, 92.27733
472.4821, 92.22993
472.9643, 92.14585
473.4464, 92.03893
473.9285, 91.92499
474.4106, 91.81686
474.8928, 91.7212
475.3749, 91.63847
475.857, 91.56523
476.3391, 91.49782
476.8213, 91.4349
477.3034, 91.37828
477.7855, 91.33161
478.2676, 91.29823
478.7498, 91.27924
479.2319, 91.27341
479.714, 91.27831
480.1961, 91.29274
480.6783, 91.31817
481.1604, 91.35896
481.6425, 91.4204
482.1246, 91.50561
482.6068, 91.61252
483.0889, 91.73261
483.571, 91.85197
484.0531, 91.95464
484.5352, 92.02727
485.0174, 92.06329
485.4995, 92.06536
485.9816, 92.04497
486.4637, 92.01929
486.9459, 92.00659
487.428, 92.02127
487.9101, 92.07063
488.3922, 92.15347
488.8744, 92.26124
489.3565, 92.38058
489.8386, 92.49702
490.3207, 92.59781
490.8029, 92.67426
491.285, 92.72222
491.7671, 92.74171
492.2492, 92.7353
492.7314, 92.70672
493.2135, 92.65986
493.6956, 92.59858
494.1777, 92.52711
494.6599, 92.45075
495.142, 92.37598
495.6241, 92.30996
496.1062, 92.25935
496.5884, 92.2286
497.0705, 92.21887
497.5526, 92.22763
498.0347, 92.24934
498.5169, 92.27734
498.999, 92.30579
499.4811, 92.33179
499.9633, 92.35612
500.4454, 92.38302
500.9275, 92.41833
501.4096, 92.46716
501.8917, 92.53108
502.3739, 92.60629
502.856, 92.68315
503.3381, 92.74779
503.8203, 92.78526
504.3024, 92.78358
504.7845, 92.73769
505.2666, 92.65177
505.7487, 92.53895
506.2309, 92.4183
506.713, 92.31007
507.1951, 92.23021
507.6772, 92.18636
508.1594, 92.17648
508.6415, 92.19044
509.1236, 92.21452
509.6057, 92.23616
510.0879, 92.24821
510.57, 92.25008
511.0521, 92.24604
511.5342, 92.24133
512.0164, 92.23783
512.4985, 92.23171
512.9806, 92.21404
513.4627, 92.17388
513.9448, 92.1031
514.427, 91.99959
514.9091, 91.86815
515.3912, 91.7177
515.8734, 91.55644
516.3555, 91.38654
516.8376, 91.20137
517.3197, 90.98591
517.8019, 90.72088
518.284, 90.38866
518.7661, 89.97944
519.2482, 89.49499
519.7303, 88.94947
520.2125, 88.36781
520.6946, 87.78227
521.1767, 87.22876
521.6588, 86.74368
522.141, 86.36081
522.6231, 86.10887
523.1052, 86.00816
523.5873, 86.06754
524.0695, 86.28164
524.5516, 86.63013
525.0337, 87.07939
525.5159, 87.58743
525.998, 88.11052
526.4801, 88.61063
526.9622, 89.06068
527.4443, 89.44652
527.9265, 89.76515
528.4086, 90.02084
528.8907, 90.2202
529.3728, 90.36896
529.855, 90.47055
530.3371, 90.52685
530.8192, 90.53981
531.3013, 90.51285
531.7834, 90.45102
532.2656, 90.36035
532.7477, 90.24645
533.2299, 90.11386
533.712, 89.96619
534.1941, 89.80733
534.6762, 89.64271
535.1583, 89.48001
535.6404, 89.32848
536.1226, 89.19744
536.6047, 89.09414
537.0868, 89.02265
537.569, 88.9837
538.0511, 88.97633
538.5332, 88.99988
539.0153, 89.05565
539.4974, 89.14666
539.9796, 89.27617
540.4617, 89.44442
540.9438, 89.64639
541.426, 89.87061
541.9081, 90.10122
542.3902, 90.32175
542.8723, 90.51973
543.3544, 90.69041
543.8365, 90.83732
544.3187, 90.9698
544.8008, 91.09844
545.283, 91.22986
545.7651, 91.36341
546.2472, 91.49087
546.7293, 91.59927
547.2114, 91.67594
547.6936, 91.71381
548.1757, 91.71454
548.6578, 91.68903
549.14, 91.65421
549.6221, 91.62823
550.1042, 91.62511
550.5863, 91.65095
551.0684, 91.70244
551.5505, 91.76806
552.0327, 91.83117
552.5148, 91.87406
552.9969, 91.88168
553.4791, 91.8449
553.9612, 91.76205
554.4433, 91.63937
554.9254, 91.48989
555.4076, 91.33129
555.8896, 91.18264
556.3718, 91.06105
556.8539, 90.97808
557.3361, 90.93746
557.8182, 90.93423
558.3003, 90.95611
558.7825, 90.9869
559.2645, 91.01106
559.7467, 91.01798
560.2288, 91.00479
560.7109, 90.97637
561.1931, 90.94292
561.6752, 90.91588
562.1573, 90.90371
562.6394, 90.90924
563.1216, 90.92945
563.6037, 90.95718
564.0858, 90.98457
564.5679, 91.00596
565.05, 91.01962
565.5322, 91.02734
566.0143, 91.03249
566.4965, 91.03756
566.9785, 91.0425
567.4607, 91.04451
567.9428, 91.03962
568.4249, 91.02512
568.907, 91.00159
569.3892, 90.97372
569.8713, 90.94918
570.3534, 90.93612
570.8356, 90.94029
571.3177, 90.96264
571.7998, 90.99888
572.2819, 91.04058
572.764, 91.07793
573.2462, 91.10262
573.7283, 91.11028
574.2104, 91.1013
574.6925, 91.08025
575.1747, 91.05363
575.6568, 91.02782
576.1389, 91.0067
576.621, 90.99096
577.1031, 90.97812
577.5853, 90.96389
578.0674, 90.94395
578.5496, 90.91557
579.0317, 90.87828
579.5138, 90.83389
579.9959, 90.78531
580.478, 90.73528
580.9601, 90.68523
581.4423, 90.63488
581.9244, 90.58307
582.4066, 90.52906
582.8887, 90.47407
583.3708, 90.42213
583.8529, 90.3796
584.335, 90.35374
584.8171, 90.35038
585.2993, 90.37191
585.7814, 90.4164
586.2635, 90.47803
586.7457, 90.54905
587.2278, 90.62209
587.7099, 90.69209
588.192, 90.75703
588.6741, 90.81705
589.1563, 90.87256
589.6384, 90.92258
590.1205, 90.96378
590.6027, 90.99106
591.0848, 90.99959
591.5669, 90.98698
592.049, 90.95501
592.5311, 90.9098
593.0133, 90.86043
593.4954, 90.8166
593.9775, 90.78616
594.4597, 90.77348
594.9418, 90.779
595.4239, 90.7997
595.906, 90.83012
596.3882, 90.86341
596.8702, 90.89196
597.3524, 90.90788
597.8345, 90.90385
598.3167, 90.8746
598.7988, 90.81861
599.2809, 90.73985
599.763, 90.64818
600.2451, 90.55826
600.7273, 90.48637
601.2094, 90.44646
601.6915, 90.44652
602.1736, 90.48633
602.6558, 90.55797
603.1379, 90.64834
603.62, 90.74323
604.1022, 90.83103
604.5842, 90.90533
605.0664, 90.96522
605.5485, 91.01399
606.0306, 91.05653
606.5128, 91.09722
606.9949, 91.13819
607.477, 91.1791
607.9591, 91.21759
608.4413, 91.24998
608.9234, 91.27235
609.4055, 91.28111
609.8876, 91.27375
610.3698, 91.2495
610.8519, 91.20995
611.334, 91.15937
611.8162, 91.10417
612.2983, 91.0515
612.7804, 91.00721
613.2625, 90.97374
613.7446, 90.94913
614.2267, 90.92725
614.7089, 90.89967
615.191, 90.8587
615.6731, 90.80007
616.1553, 90.72466
616.6374, 90.63858
617.1195, 90.55149
617.6016, 90.47408
618.0837, 90.41582
618.5659, 90.38329
619.048, 90.37991
619.5302, 90.40636
620.0123, 90.46113
620.4944, 90.54066
620.9765, 90.63927
621.4586, 90.74886
621.9407, 90.85941
622.4229, 90.96034
622.905, 91.04297
623.3871, 91.10283
623.8693, 91.14113
624.3514, 91.16452
624.8335, 91.18297
625.3156, 91.20615
625.7977, 91.24008
626.2798, 91.28468
626.762, 91.33389
627.2441, 91.37754
627.7263, 91.40493
628.2084, 91.40826
628.6905, 91.3851
629.1726, 91.33875
629.6547, 91.27695
630.1368, 91.20921
630.619, 91.14417
631.1011, 91.08736
631.5833, 91.04043
632.0654, 91.00152
632.5475, 90.96661
633.0296, 90.93114
633.5117, 90.89159
633.9939, 90.84632
634.476, 90.79618
634.9581, 90.74413
635.4402, 90.6946
635.9224, 90.65265
636.4045, 90.62272
636.8866, 90.60764
637.3687, 90.60793
637.8508, 90.62127
638.333, 90.64292
638.8151, 90.66622
639.2972, 90.68363
639.7794, 90.68784
640.2615, 90.67239
640.7436, 90.63219
641.2257, 90.56358
641.7079, 90.46403
642.1899, 90.33213
642.6721, 90.16756
643.1542, 89.97131
643.6364, 89.74615
644.1185, 89.49719
644.6006, 89.23219
645.0827, 88.96172
645.5648, 88.69867
646.047, 88.45737
646.5291, 88.25214
647.0112, 88.09579
647.4933, 87.99792
647.9755, 87.96376
648.4576, 87.99366
648.9397, 88.08344
649.4219, 88.22537
649.904, 88.40964
650.3861, 88.62545
650.8682, 88.86221
651.3503, 89.10972
651.8325, 89.35867
652.3146, 89.60042
652.7968, 89.82732
653.2788, 90.03293
653.761, 90.21214
654.2431, 90.36127
654.7252, 90.47779
655.2073, 90.55993
655.6895, 90.60648
656.1716, 90.61695
656.6537, 90.59229
657.1359, 90.53556
657.6179, 90.45281
658.1001, 90.35275
658.5822, 90.2458
659.0643, 90.14202
659.5464, 90.049
660.0286, 89.96995
660.5107, 89.90326
660.9928, 89.84312
661.475, 89.78152
661.9571, 89.7106
662.4392, 89.62474
662.9213, 89.52158
663.4034, 89.40201
663.8856, 89.26923
664.3677, 89.12769
664.8499, 88.98231
665.332, 88.83846
665.8141, 88.70213
666.2962, 88.5799
666.7783, 88.47845
667.2605, 88.40312
667.7426, 88.35602
668.2247, 88.33472
668.7068, 88.33158
669.189, 88.33492
669.6711, 88.33105
670.1532, 88.30693
670.6353, 88.25227
671.1174, 88.16055
671.5996, 88.02903
672.0817, 87.85797
672.5638, 87.65032
673.046, 87.4121
673.5281, 87.15352
674.0102, 86.8903
674.4923, 86.64399
674.9745, 86.44016
675.4565, 86.3044
675.9387, 86.2567
676.4208, 86.30573
676.903, 86.44512
677.3851, 86.6532
677.8672, 86.89669
678.3493, 87.13749
678.8314, 87.34067
679.3136, 87.48151
679.7957, 87.54973
680.2778, 87.55026
680.7599, 87.50047
681.2421, 87.42506
681.7242, 87.3502
682.2063, 87.29839
682.6885, 87.28506
683.1705, 87.31709
683.6527, 87.39312
684.1348, 87.50447
684.6169, 87.63632
685.0991, 87.76857
685.5812, 87.87624
686.0634, 87.93007
686.5454, 87.89789
687.0276, 87.74725
687.5096, 87.44987
687.9918, 86.98694
688.4739, 86.35455
688.9561, 85.56796
689.4382, 84.66307
689.9203, 83.69485
690.4025, 82.73222
690.8845, 81.8502
691.3667, 81.12039
691.8488, 80.60114
692.3309, 80.32958
692.813, 80.31681
693.2952, 80.5474
693.7773, 80.98279
694.2594, 81.56796
694.7416, 82.23918
695.2236, 82.93216
695.7058, 83.58888
696.1879, 84.16306
696.67, 84.62322
697.1522, 84.95384
697.6343, 85.15391
698.1165, 85.23379
698.5985, 85.21065
699.0807, 85.10382
699.5628, 84.93041
700.0449, 84.70265
700.527, 84.4265
701.0092, 84.10183
701.4913, 83.7235
701.9734, 83.28266
702.4556, 82.76786
702.9377, 82.16592
703.4198, 81.46252
703.9019, 80.64317
704.384, 79.69431
704.8662, 78.60509
705.3483, 77.36929
705.8304, 75.98682
706.3125, 74.4651
706.7947, 72.81952
707.2768, 71.07329
707.7589, 69.25719
708.241, 67.409
708.7231, 65.5731
709.2053, 63.80004
709.6874, 62.14533
710.1696, 60.66745
710.6517, 59.42469
711.1338, 58.47116
711.6159, 57.85235
712.098, 57.60142
712.5802, 57.7366
713.0623, 58.2596
713.5444, 59.15548
714.0265, 60.39259
714.5087, 61.92353
714.9908, 63.6869
715.4729, 65.61037
715.955, 67.61539
716.4371, 69.62292
716.9193, 71.55926
717.4014, 73.36119
717.8835, 74.97898
718.3657, 76.37763
718.8478, 77.53568
719.3299, 78.44329
719.812, 79.09982
720.2942, 79.51185
720.7762, 79.69165
721.2584, 79.65645
721.7405, 79.42735
722.2227, 79.02803
722.7048, 78.48276
723.1869, 77.81452
723.6691, 77.04362
724.1511, 76.18762
724.6333, 75.26243
725.1154, 74.28448
725.5975, 73.2725
726.0797, 72.24857
726.5618, 71.23717
727.0439, 70.26335
727.526, 69.35009
728.0082, 68.51604
728.4902, 67.77473
728.9724, 67.13496
729.4545, 66.60184
729.9366, 66.17807
730.4188, 65.86443
730.9009, 65.65981
731.3831, 65.5609
731.8651, 65.56214
732.3473, 65.65665
732.8293, 65.83746
733.3115, 66.09914
733.7936, 66.43896
734.2758, 66.85693
734.7579, 67.35511
735.24, 67.93614
735.7222, 68.6019
736.2042, 69.35243
736.6864, 70.18573
737.1685, 71.0976
737.6506, 72.08196
738.1328, 73.1307
738.6149, 74.23347
739.097, 75.3774
739.5791, 76.54726
740.0613, 77.72596
740.5434, 78.89597
741.0255, 80.04083
741.5076, 81.14655
741.9897, 82.20246
742.4719, 83.2013
742.954, 84.13863
743.4362, 85.01193
743.9182, 85.81979
744.4004, 86.56171
744.8825, 87.2381
745.3646, 87.85072
745.8467, 88.40256
746.3289, 88.89727
746.811, 89.33825
747.2931, 89.72758
747.7753, 90.06548
748.2574, 90.35105
748.7395, 90.58356
749.2216, 90.76449
749.7037, 90.89888
750.1859, 90.99559
750.668, 91.06577
751.1501, 91.1204
751.6322, 91.16737
752.1144, 91.2097
752.5965, 91.24521
753.0786, 91.26817
753.5608, 91.27201
754.0428, 91.25233
754.525, 91.20877
755.0071, 91.14565
755.4893, 91.07069
755.9714, 90.99326
756.4535, 90.92183
756.9356, 90.86262
757.4177, 90.81854
757.8999, 90.78942
758.382, 90.77248
758.8641, 90.76313
759.3463, 90.75582
759.8284, 90.7448
760.3105, 90.72502
760.7926, 90.69306
761.2748, 90.6478
761.7568, 90.59077
762.239, 90.52581
762.7211, 90.45794
763.2032, 90.39191
763.6854, 90.33066
764.1675, 90.27451
764.6496, 90.22092
765.1317, 90.16528
765.6139, 90.10207
766.0959, 90.02608
766.5781, 89.93333
767.0602, 89.82147
767.5424, 89.68942
768.0245, 89.53701
768.5066, 89.36445
768.9888, 89.17169
769.4708, 88.95807
769.953, 88.72183
770.4351, 88.45998
770.9172, 88.16831
771.3994, 87.84235
771.8815, 87.47859
772.3636, 87.07665
772.8457, 86.64108
773.3279, 86.18241
773.8099, 85.71674
774.2921, 85.26334
774.7742, 84.84093
775.2563, 84.46321
775.7385, 84.13522
776.2206, 83.85138
776.7028, 83.59561
777.1848, 83.34382
777.667, 83.06773
778.1491, 82.73905
778.6312, 82.33298
779.1133, 81.83047
779.5955, 81.21882
780.0776, 80.49171
780.5597, 79.64846
781.0419, 78.69344
781.5239, 77.63595
782.0061, 76.4899
782.4882, 75.27369
782.9703, 74.00966
783.4525, 72.72302
783.9346, 71.44081
784.4167, 70.19034
784.8988, 68.99778
785.381, 67.88705
785.8631, 66.87845
786.3452, 65.98775
786.8273, 65.22526
787.3094, 64.59546
787.7916, 64.09736
788.2737, 63.72562
788.7559, 63.47284
789.238, 63.33173
789.7201, 63.29739
790.2022, 63.36803
790.6843, 63.54443
791.1665, 63.82785
791.6486, 64.21731
792.1307, 64.70715
792.6128, 65.28589
793.095, 65.93673
793.5771, 66.63971
794.0592, 67.37463
794.5413, 68.12384
795.0234, 68.87392
795.5056, 69.61623
795.9877, 70.34586
796.4698, 71.0603
796.952, 71.75779
797.4341, 72.43631
797.9162, 73.09302
798.3983, 73.72438
798.8805, 74.32658
799.3625, 74.89577
799.8447, 75.42858
800.3268, 75.92246
800.809, 76.37611
801.2911, 76.79005
801.7732, 77.16711
802.2553, 77.51291
802.7374, 77.83568
803.2196, 78.14577
803.7017, 78.45442
804.1838, 78.77218
804.666, 79.10711
805.1481, 79.46338
805.6302, 79.8404
806.1123, 80.23291
806.5945, 80.63193
807.0765, 81.02666
807.5587, 81.40656
808.0408, 81.76353
808.5229, 82.09335
809.0051, 82.39589
809.4872, 82.67453
809.9694, 82.93459
810.4514, 83.18113
810.9336, 83.41753
811.4156, 83.64441
811.8978, 83.85967
812.3799, 84.0594
812.8621, 84.23923
813.3442, 84.39574
813.8263, 84.52751
814.3085, 84.63554
814.7905, 84.72334
815.2727, 84.79623
815.7548, 84.86098
816.2369, 84.92487
816.7191, 84.9949
817.2012, 85.07688
817.6833, 85.17448
818.1654, 85.28834
818.6476, 85.41584
819.1296, 85.55128
819.6118, 85.68725
820.0939, 85.81615
820.576, 85.93211
821.0582, 86.03213
821.5403, 86.11632
822.0225, 86.18678
822.5045, 86.24592
822.9867, 86.29429
823.4688, 86.32928
823.9509, 86.34461
824.433, 86.33112
824.9152, 86.27831
825.3973, 86.17594
825.8794, 86.01532
826.3616, 85.78967
826.8437, 85.49409
827.3258, 85.12514
827.8079, 84.68079
828.29, 84.16117
828.7722, 83.57006
829.2543, 82.91666
829.7365, 82.21732
830.2185, 81.49632
830.7007, 80.78514
831.1828, 80.12051
831.6649, 79.54105
832.147, 79.0834
832.6292, 78.77788
833.1113, 78.64484
833.5934, 78.6916
834.0756, 78.91072
834.5577, 79.28017
835.0398, 79.76545
835.5219, 80.32394
836.004, 80.9107
836.4862, 81.48451
836.9683, 82.01307
837.4504, 82.47583
837.9325, 82.86423
838.4147, 83.17933
838.8968, 83.4277
839.3789, 83.61713
839.861, 83.75305
840.3431, 83.83694
840.8253, 83.86629
841.3074, 83.83635
841.7896, 83.74209
842.2717, 83.57993
842.7538, 83.34849
843.2359, 83.04836
843.718, 82.68112
844.2002, 82.24826
844.6823, 81.75063
845.1644, 81.18817
845.6465, 80.56057
846.1287, 79.86757
846.6108, 79.10949
847.0929, 78.28758
847.5751, 77.40395
848.0571, 76.46187
848.5393, 75.46617
849.0214, 74.4237
849.5035, 73.34442
849.9857, 72.24185
850.4678, 71.13407
850.9499, 70.0442
851.432, 69.00105
851.9142, 68.03925
852.3962, 67.19874
852.8784, 66.52289
853.3605, 66.05513
853.8427, 65.83368
854.3248, 65.88567
854.8069, 66.22119
855.2891, 66.82934
855.7711, 67.67691
856.2533, 68.7105
856.7354, 69.86183
857.2175, 71.0551
857.6996, 72.21543
858.1818, 73.27654
858.6639, 74.18643
859.146, 74.91022
859.6282, 75.43018
860.1102, 75.74373
860.5924, 75.85974
861.0745, 75.79513
861.5566, 75.57108
862.0388, 75.21048
862.5209, 74.73561
863.0031, 74.16689
863.4851, 73.52226
863.9673, 72.81728
864.4494, 72.06564
864.9315, 71.28017
865.4136, 70.47404
865.8958, 69.66181
866.3779, 68.86082
866.86, 68.09225
867.3422, 67.38219
867.8242, 66.76205
868.3064, 66.26781
868.7885, 65.93796
869.2706, 65.80939
869.7527, 65.91229
870.2349, 66.26464
870.717, 66.86762
871.1991, 67.70329
871.6813, 68.73521
872.1634, 69.91183
872.6455, 71.17223
873.1276, 72.45301
873.6097, 73.69532
874.0919, 74.85041
874.574, 75.88352
875.0562, 76.7751
875.5382, 77.52006
876.0204, 78.12521
876.5025, 78.60609
876.9846, 78.9831
877.4668, 79.27833
877.9489, 79.51244
878.431, 79.70247
878.9131, 79.86057
879.3953, 79.99364
879.8774, 80.10424
880.3595, 80.19242
880.8416, 80.25788
881.3237, 80.30215
881.8059, 80.32946
882.288, 80.34656
882.7701, 80.36097
883.2523, 80.37828
883.7344, 80.3997
884.2165, 80.42059
884.6986, 80.43045
885.1808, 80.41502
885.6628, 80.35942
886.145, 80.25201
886.6271, 80.0874
887.1093, 79.86818
887.5914, 79.60476
888.0735, 79.31374
888.5556, 79.01506
889.0377, 78.72896
889.5199, 78.47311
890.002, 78.2606
890.4841, 78.09888
890.9662, 77.98943
891.4484, 77.9284
891.9305, 77.9077
892.4126, 77.91656
892.8948, 77.94311
893.3768, 77.97585
893.859, 78.00475
894.3411, 78.02139
894.8232, 78.01897
895.3054, 77.99139
895.7875, 77.93272
896.2697, 77.83667
896.7517, 77.69684
897.2339, 77.50733
897.7159, 77.2639
898.1981, 76.96487
898.6802, 76.61208
899.1624, 76.21103
899.6445, 75.77087
900.1266, 75.30383
900.6088, 74.82481
901.0908, 74.35081
901.573, 73.90034
902.0551, 73.49288
902.5372, 73.14796
903.0193, 72.88394
903.5015, 72.71667
903.9836, 72.65797
904.4657, 72.71427
904.9479, 72.88577
905.4299, 73.16601
905.9121, 73.54198
906.3942, 73.99483
906.8763, 74.50092
907.3585, 75.03365
907.8406, 75.56573
908.3228, 76.0723
908.8048, 76.53391
909.287, 76.93932
909.7691, 77.28689
910.2512, 77.58443
910.7333, 77.84711
911.2155, 78.0944
911.6976, 78.34615
912.1797, 78.61957
912.6619, 78.92732
913.144, 79.27716
913.6261, 79.67271
914.1082, 80.11481
914.5903, 80.60258
915.0724, 81.13406
915.5546, 81.70571
916.0367, 82.31234
916.5189, 82.9465
917.001, 83.59897
917.4831, 84.25977
917.9652, 84.91951
918.4473, 85.57074
918.9294, 86.20855
919.4116, 86.83051
919.8937, 87.43549
920.3759, 88.02232
920.858, 88.5887
921.3401, 89.13042
921.8222, 89.64202
922.3043, 90.11786
922.7864, 90.55351
923.2686, 90.94688
923.7507, 91.29857
924.2328, 91.61121
924.715, 91.88834
925.1971, 92.1331
925.6792, 92.34735
926.1613, 92.53171
926.6434, 92.68639
927.1255, 92.81226
927.6077, 92.9119
928.0898, 92.98958
928.572, 93.05073
929.0541, 93.10048
929.5362, 93.14223
930.0183, 93.17664
930.5004, 93.20143
930.9826, 93.21225
931.4647, 93.20405
931.9468, 93.17245
932.429, 93.11481
932.9111, 93.03037
933.3932, 92.91959
933.8753, 92.78288
934.3574, 92.61959
934.8396, 92.42696
935.3217, 92.19991
935.8038, 91.9315
936.2859, 91.61381
936.7681, 91.23906
937.2502, 90.80087
937.7323, 90.295
938.2144, 89.72041
938.6966, 89.07968
939.1787, 88.37981
939.6608, 87.63258
940.1429, 86.855
940.6251, 86.06915
941.1072, 85.30128
941.5893, 84.57947
942.0714, 83.93047
942.5536, 83.37513
943.0357, 82.92403
943.5178, 82.57399
943.9999, 82.30653
944.4821, 82.08949
944.9642, 81.88087
945.4463, 81.63538
945.9284, 81.31168
946.4106, 80.87905
946.8927, 80.32266
947.3748, 79.64537
947.8569, 78.86694
948.3391, 78.02006
948.8212, 77.14507
949.3033, 76.28425
949.7855, 75.47688
950.2676, 74.75582
950.7497, 74.14584
951.2318, 73.66376
951.7139, 73.3195
952.196, 73.11808
952.6782, 73.06122
953.1603, 73.14849
953.6425, 73.37777
954.1246, 73.7449
954.6067, 74.24332
955.0888, 74.86356
955.5709, 75.59325
956.053, 76.41718
956.5352, 77.31792
957.0173, 78.27606
957.4995, 79.2709
957.9816, 80.28093
958.4637, 81.2847
958.9458, 82.26154
959.4279, 83.19262
959.91, 84.06164
960.3922, 84.85534
960.8743, 85.56358
961.3564, 86.1795
961.8386, 86.6992
962.3207, 87.12165
962.8028, 87.44859
963.2849, 87.68416
963.767, 87.83482
964.2491, 87.90881
964.7313, 87.91534
965.2134, 87.86386
965.6956, 87.76301
966.1777, 87.6201
966.6598, 87.4404
967.1419, 87.22733
967.624, 86.98286
968.1061, 86.70836
968.5883, 86.4052
969.0704, 86.07555
969.5526, 85.72228
970.0347, 85.34874
970.5168, 84.95834
970.9989, 84.55425
971.481, 84.13968
971.9631, 83.71843
972.4453, 83.29599
972.9274, 82.8802
973.4095, 82.48127
973.8917, 82.1108
974.3738, 81.77994
974.8559, 81.49745
975.338, 81.26763
975.8201, 81.08978
976.3023, 80.9584
976.7844, 80.86494
977.2665, 80.79985
977.7487, 80.75449
978.2308, 80.7225
978.7129, 80.70001
979.195, 80.68493
979.6771, 80.67582
980.1593, 80.67064
980.6414, 80.66624
981.1235, 80.65829
981.6057, 80.64182
982.0878, 80.61187
982.5699, 80.56406
983.052, 80.49476
983.5342, 80.40091
984.0163, 80.27944
984.4984, 80.12691
984.9805, 79.93881
985.4626, 79.70905
985.9448, 79.42945
986.4269, 79.08926
986.909, 78.67504
987.3912, 78.17107
987.8733, 77.56049
988.3554, 76.82771
988.8375, 75.96089
989.3196, 74.95518
989.8018, 73.81499
990.2839, 72.55545
990.766, 71.2022
991.2482, 69.79027
991.7303, 68.36131
992.2124, 66.96059
992.6945, 65.63273
993.1766, 64.41756
993.6588, 63.3459
994.1409, 62.43641
994.623, 61.69389
995.1052, 61.11007
995.5873, 60.66619
996.0694, 60.33782
996.5515, 60.09991
997.0336, 59.93131
997.5157, 59.81754
997.9979, 59.75048
998.48, 59.72605
998.9622, 59.73979
999.4443, 59.78256
999.9264, 59.83772
1000.409, 59.8812
1000.891, 59.88453
1001.373, 59.82025
1001.855, 59.66815
1002.337, 59.42035
1002.819, 59.08424
1003.301, 58.68223
1003.783, 58.24907
1004.266, 57.82695
1004.748, 57.46012
1005.23, 57.18938
1005.712, 57.04753
1006.194, 57.05585
1006.676, 57.22176
1007.158, 57.53786
1007.64, 57.9824
1008.122, 58.52135
1008.605, 59.11261
1009.087, 59.71117
1009.569, 60.27527
1010.051, 60.77138
1010.533, 61.17769
1011.015, 61.48511
1011.497, 61.69648
1011.979, 61.82448
1012.462, 61.88923
1012.944, 61.91603
1013.426, 61.93358
1013.908, 61.97175
1014.39, 62.05933
1014.872, 62.22104
1015.354, 62.47469
1015.836, 62.82879
1016.319, 63.28152
1016.801, 63.82151
1017.283, 64.43011
1017.765, 65.08444
1018.247, 65.7606
1018.729, 66.43568
1019.211, 67.08931
1019.693, 67.70394
1020.176, 68.26544
1020.658, 68.76389
1021.14, 69.19459
1021.622, 69.55908
1022.104, 69.86551
1022.586, 70.12733
1023.068, 70.36162
1023.55, 70.58619
1024.033, 70.81696
1024.515, 71.06623
1024.997, 71.34194
1025.479, 71.64767
1025.961, 71.98316
1026.443, 72.34496
1026.925, 72.72678
1027.407, 73.12005
1027.89, 73.51476
1028.372, 73.9007
1028.854, 74.26872
1029.336, 74.6121
1029.818, 74.92668
1030.3, 75.21026
1030.782, 75.46158
1031.264, 75.67918
1031.747, 75.86137
1032.229, 76.00735
1032.711, 76.11913
1033.193, 76.20343
1033.675, 76.27254
1034.157, 76.34316
1034.639, 76.43357
1035.121, 76.55964
1035.604, 76.73129
1036.086, 76.95016
1036.568, 77.2093
1037.05, 77.49458
1037.532, 77.78716
1038.014, 78.0662
1038.496, 78.3114
1038.979, 78.50553
1039.461, 78.63686
1039.943, 78.70203
1040.425, 78.7086
1040.907, 78.67621
1041.389, 78.63551
1041.871, 78.62392
1042.353, 78.67857
1042.835, 78.82829
1043.318, 79.08681
1043.8, 79.44909
1044.282, 79.89268
1044.764, 80.38285
1045.246, 80.88062
1045.728, 81.35052
1046.21, 81.76628
1046.692, 82.11313
1047.175, 82.38638
1047.657, 82.58846
1048.139, 82.7253
1048.621, 82.80363
1049.103, 82.83018
1049.585, 82.81154
1050.067, 82.75459
1050.549, 82.66607
1051.031, 82.55156
1051.514, 82.41387
1051.996, 82.25235
1052.478, 82.06288
1052.96, 81.83936
1053.442, 81.57565
1053.924, 81.26756
1054.406, 80.91308
1054.889, 80.5116
1055.371, 80.062
1055.853, 79.56072
1056.335, 79.00058
1056.817, 78.37114
1057.299, 77.66027
1057.781, 76.85632
1058.263, 75.95004
1058.746, 74.93557
1059.228, 73.81042
1059.71, 72.57525
1060.192, 71.23299
1060.674, 69.78912
1061.156, 68.25191
1061.638, 66.6329
1062.12, 64.94684
1062.603, 63.2114
1063.085, 61.44632
1063.567, 59.67319
1064.049, 57.91605
1064.531, 56.20315
1065.013, 54.56913
1065.495, 53.05653
1065.977, 51.71532
1066.46, 50.59999
1066.942, 49.76369
1067.424, 49.25118
1067.906, 49.09158
1068.388, 49.29299
1068.87, 49.84016
1069.352, 50.69617
1069.834, 51.80778
1070.317, 53.11356
1070.799, 54.55309
1071.281, 56.07498
1071.763, 57.64175
1072.245, 59.23056
1072.727, 60.82946
1073.209, 62.43098
1073.691, 64.02466
1074.174, 65.59089
1074.656, 67.09814
1075.138, 68.50397
1075.62, 69.75977
1076.102, 70.81793
1076.584, 71.63949
1077.066, 72.20068
1077.548, 72.49701
1078.031, 72.54389
1078.513, 72.37438
1078.995, 72.03419
1079.477, 71.57552
1079.959, 71.05054
1080.441, 70.5062
1080.923, 69.9804
1081.406, 69.50031
1081.888, 69.08239
1082.37, 68.7339
1082.852, 68.45444
1083.334, 68.23762
1083.816, 68.07191
1084.298, 67.94066
1084.78, 67.82208
1085.262, 67.68977
1085.745, 67.5144
1086.227, 67.26691
1086.709, 66.92274
1087.191, 66.46593
1087.673, 65.89204
1088.155, 65.20921
1088.637, 64.43671
1089.119, 63.60194
1089.602, 62.73647
1090.084, 61.87242
1090.566, 61.0399
1091.048, 60.26563
1091.53, 59.57264
1092.012, 58.9803
1092.494, 58.50428
1092.976, 58.15595
1093.458, 57.94144
1093.941, 57.86037
1094.423, 57.90491
1094.905, 58.05896
1095.387, 58.29791
1095.869, 58.58915
1096.351, 58.89385
1096.833, 59.1702
1097.316, 59.37897
1097.798, 59.49043
1098.28, 59.49178
1098.762, 59.39348
1099.244, 59.23196
1099.726, 59.0676
1100.208, 58.97764
1100.69, 59.04458
1101.173, 59.34302
1101.655, 59.92748
1102.137, 60.8241
1102.619, 62.02763
1103.101, 63.50395
1103.583, 65.19664
1104.065, 67.0359
1104.547, 68.94784
1105.03, 70.86232
1105.512, 72.71861
1105.994, 74.46857
1106.476, 76.07732
1106.958, 77.52244
1107.44, 78.79192
1107.922, 79.88199
1108.404, 80.79484
1108.886, 81.53704
1109.369, 82.1184
1109.851, 82.55135
1110.333, 82.85077
1110.815, 83.034
1111.297, 83.12051
1111.779, 83.13145
1112.261, 83.08881
1112.744, 83.01452
1113.226, 82.92973
1113.708, 82.85446
1114.19, 82.80777
1114.672, 82.80806
1115.154, 82.87264
1115.636, 83.01723
1116.118, 83.2538
1116.601, 83.58875
1117.083, 84.0206
1117.565, 84.53913
1118.047, 85.12581
1118.529, 85.75571
1119.011, 86.40088
1119.493, 87.03413
1119.975, 87.63263
1120.458, 88.18044
1120.94, 88.66946
1121.422, 89.09892
1121.904, 89.47347
1122.386, 89.80082
1122.868, 90.08895
1123.35, 90.34451
1123.832, 90.57145
1124.314, 90.77115
1124.797, 90.94302
1125.279, 91.08581
1125.761, 91.19907
1126.243, 91.28391
1126.725, 91.34351
1127.207, 91.3828
1127.689, 91.40742
1128.172, 91.4225
1128.654, 91.43179
1129.136, 91.43709
1129.618, 91.43851
1130.1, 91.43528
1130.582, 91.42664
1131.064, 91.41258
1131.546, 91.39419
1132.029, 91.37326
1132.511, 91.35162
1132.993, 91.33051
1133.475, 91.31008
1133.957, 91.28929
1134.439, 91.26599
1134.921, 91.23775
1135.403, 91.20207
1135.885, 91.15697
1136.368, 91.10135
1136.85, 91.03509
1137.332, 90.95914
1137.814, 90.87525
1138.296, 90.78535
1138.778, 90.69088
1139.26, 90.59175
1139.742, 90.48578
1140.225, 90.36873
1140.707, 90.23492
1141.189, 90.0788
1141.671, 89.89635
1142.153, 89.68629
1142.635, 89.45016
1143.117, 89.19124
1143.599, 88.91255
1144.082, 88.61506
1144.564, 88.29623
1145.046, 87.94987
1145.528, 87.56736
1146.01, 87.13905
1146.492, 86.65601
1146.974, 86.11042
1147.457, 85.49544
1147.939, 84.80436
1148.421, 84.03008
1148.903, 83.16562
1149.385, 82.20636
1149.867, 81.1535
1150.349, 80.01788
1150.831, 78.82303
1151.313, 77.60616
1151.796, 76.41633
1152.278, 75.31026
1152.76, 74.34613
1153.242, 73.57681
1153.724, 73.04311
1154.206, 72.76869
1154.688, 72.75668
1155.17, 72.9892
1155.653, 73.42966
1156.135, 74.0275
1156.617, 74.72475
1157.099, 75.46284
1157.581, 76.18867
1158.063, 76.85875
1158.545, 77.44092
1159.027, 77.91399
1159.51, 78.26555
1159.992, 78.48932
1160.474, 78.58234
1160.956, 78.54335
1161.438, 78.37156
1161.92, 78.06673
1162.402, 77.6293
1162.885, 77.06063
1163.367, 76.36328
1163.849, 75.54096
1164.331, 74.59879
1164.813, 73.54382
1165.295, 72.38548
1165.777, 71.1363
1166.259, 69.81212
1166.741, 68.43201
1167.224, 67.01801
1167.706, 65.5944
1168.188, 64.18726
1168.67, 62.82382
1169.152, 61.53176
1169.634, 60.33823
1170.116, 59.26826
1170.598, 58.34313
1171.081, 57.57841
1171.563, 56.98278
1172.045, 56.55743
1172.527, 56.29625
1173.009, 56.18674
1173.491, 56.21135
1173.973, 56.34901
1174.455, 56.57687
1174.938, 56.87205
1175.42, 57.21358
1175.902, 57.58389
1176.384, 57.97008
1176.866, 58.36398
1177.348, 58.76183
1177.83, 59.16261
1178.313, 59.56644
1178.795, 59.97306
1179.277, 60.38093
1179.759, 60.78751
1180.241, 61.19015
1180.723, 61.5873
1181.205, 61.97973
1181.687, 62.37062
1182.169, 62.76491
1182.652, 63.16822
1183.134, 63.58525
1183.616, 64.01888
1184.098, 64.46957
1184.58, 64.93581
1185.062, 65.41458
1185.544, 65.90218
1186.026, 66.39482
1186.509, 66.88884
1186.991, 67.38082
1187.473, 67.86737
1187.955, 68.34518
1188.437, 68.81075
1188.919, 69.26067
1189.401, 69.69154
1189.883, 70.10032
1190.366, 70.48427
1190.848, 70.84113
1191.33, 71.16898
1191.812, 71.46652
1192.294, 71.73271
1192.776, 71.96679
1193.258, 72.16814
1193.74, 72.33605
1194.223, 72.46985
1194.705, 72.56921
1195.187, 72.63441
1195.669, 72.66727
1196.151, 72.67123
1196.633, 72.6513
1197.115, 72.61334
1197.597, 72.56284
1198.08, 72.50354
1198.562, 72.43664
1199.044, 72.3607
1199.526, 72.27275
1200.008, 72.16962
1200.49, 72.04994
1200.972, 71.91509
1201.454, 71.76942
1201.937, 71.61926
1202.419, 71.4715
1202.901, 71.33182
1203.383, 71.2037
1203.865, 71.08804
1204.347, 70.98388
1204.829, 70.88921
1205.312, 70.8021
1205.794, 70.72134
1206.276, 70.64663
1206.758, 70.57843
1207.24, 70.51765
1207.722, 70.46537
1208.204, 70.42281
1208.686, 70.39134
1209.168, 70.3725
1209.651, 70.36791
1210.133, 70.37898
1210.615, 70.40638
1211.097, 70.44982
1211.579, 70.50778
1212.061, 70.57774
1212.543, 70.65648
1213.025, 70.74072
1213.508, 70.82762
1213.99, 70.91506
1214.472, 71.0015
1214.954, 71.08601
1215.436, 71.16749
1215.918, 71.24451
1216.4, 71.31488
1216.882, 71.37602
1217.365, 71.42501
1217.847, 71.45932
1218.329, 71.4772
1218.811, 71.47784
1219.293, 71.46107
1219.775, 71.4268
1220.257, 71.37436
1220.74, 71.30158
1221.222, 71.20497
1221.704, 71.08017
1222.186, 70.92335
1222.668, 70.73328
1223.15, 70.51314
1223.632, 70.27219
1224.114, 70.02608
1224.596, 69.79613
1225.079, 69.60722
1225.561, 69.48494
1226.043, 69.45241
1226.525, 69.52747
1227.007, 69.72043
1227.489, 70.03295
1227.971, 70.45766
1228.453, 70.97919
1228.936, 71.57551
1229.418, 72.2205
1229.9, 72.88632
1230.382, 73.54603
1230.864, 74.17565
1231.346, 74.75597
1231.828, 75.27345
1232.31, 75.72056
1232.792, 76.09533
1233.275, 76.40038
1233.757, 76.64164
1234.239, 76.8269
1234.721, 76.96446
1235.203, 77.06264
1235.685, 77.12926
1236.167, 77.17172
1236.65, 77.1972
1237.132, 77.21243
1237.614, 77.22349
1238.096, 77.23531
1238.578, 77.2509
1239.06, 77.2711
1239.542, 77.29446
1240.024, 77.31794
1240.507, 77.33781
1240.989, 77.35091
1241.471, 77.35542
1241.953, 77.3515
1242.435, 77.3409
1242.917, 77.32626
1243.399, 77.31005
1243.881, 77.29366
1244.364, 77.27681
1244.846, 77.25771
1245.328, 77.2333
1245.81, 77.20023
1246.292, 77.15536
1246.774, 77.0963
1247.256, 77.02156
1247.738, 76.93055
1248.22, 76.82336
1248.703, 76.70094
1249.185, 76.5651
1249.667, 76.41881
1250.149, 76.26624
1250.631, 76.11259
1251.113, 75.96375
1251.595, 75.82565
1252.078, 75.70358
1252.56, 75.60177
1253.042, 75.52293
1253.524, 75.46854
1254.006, 75.43881
1254.488, 75.43301
1254.97, 75.44979
1255.452, 75.48759
1255.935, 75.54488
1256.417, 75.62097
1256.899, 75.71626
1257.381, 75.83279
1257.863, 75.97422
1258.345, 76.1455
1258.827, 76.35216
1259.309, 76.59944
1259.792, 76.89137
1260.274, 77.23035
1260.756, 77.61665
1261.238, 78.04862
1261.72, 78.52279
1262.202, 79.03419
1262.684, 79.57655
1263.166, 80.14242
1263.648, 80.72341
1264.131, 81.31039
1264.613, 81.89343
1265.095, 82.46222
1265.577, 83.00592
1266.059, 83.51353
1266.541, 83.97417
1267.023, 84.37771
1267.505, 84.71539
1267.988, 84.98063
1268.47, 85.1693
1268.952, 85.27975
1269.434, 85.31228
1269.916, 85.2682
1270.398, 85.14876
1270.88, 84.95454
1271.363, 84.68491
1271.845, 84.3386
1272.327, 83.91446
1272.809, 83.41297
1273.291, 82.83762
1273.773, 82.1963
1274.255, 81.50208
1274.737, 80.77346
1275.219, 80.03376
1275.702, 79.30975
1276.184, 78.62911
1276.666, 78.01718
1277.148, 77.49289
1277.63, 77.06464
1278.112, 76.72706
1278.594, 76.45973
1279.076, 76.22841
1279.559, 75.98895
1280.041, 75.6935
1280.523, 75.297
1281.005, 74.76296
1281.487, 74.06689
1281.969, 73.19709
1282.451, 72.15324
1282.933, 70.94371
1283.416, 69.58305
1283.898, 68.09048
1284.38, 66.48938
1284.862, 64.8073
1285.344, 63.0758
1285.826, 61.32904
1286.308, 59.6018
1286.791, 57.92706
1287.273, 56.3342
1287.755, 54.84845
1288.237, 53.49156
1288.719, 52.28298
1289.201, 51.24072
1289.683, 50.38139
1290.165, 49.71931
1290.647, 49.26528
1291.13, 49.02553
1291.612, 49.00152
1292.094, 49.19012
1292.576, 49.58388
1293.058, 50.17093
1293.54, 50.93384
1294.022, 51.84838
1294.504, 52.88241
1294.987, 53.99646
1295.469, 55.14616
1295.951, 56.28679
1296.433, 57.37904
1296.915, 58.3946
1297.397, 59.32008
1297.879, 60.15814
1298.361, 60.92539
1298.844, 61.64755
1299.326, 62.35334
1299.808, 63.06833
1300.29, 63.81049
1300.772, 64.58755
1301.254, 65.3968
1301.736, 66.22703
1302.219, 67.06105
1302.701, 67.87935
1303.183, 68.66313
1303.665, 69.397
1304.147, 70.07063
1304.629, 70.68002
1305.111, 71.22752
1305.593, 71.72144
1306.075, 72.17451
1306.558, 72.60239
1307.04, 73.02119
1307.522, 73.44581
1308.004, 73.888
1308.486, 74.35527
1308.968, 74.85027
1309.45, 75.37077
1309.932, 75.91034
1310.415, 76.45934
1310.897, 77.00627
1311.379, 77.53939
1311.861, 78.04794
1312.343, 78.52351
1312.825, 78.96037
1313.307, 79.35595
1313.789, 79.71026
1314.272, 80.02516
1314.754, 80.30378
1315.236, 80.54955
1315.718, 80.76582
1316.2, 80.95557
1316.682, 81.12113
1317.164, 81.26437
1317.646, 81.38658
1318.129, 81.48891
1318.611, 81.57281
1319.093, 81.64078
1319.575, 81.69698
1320.057, 81.7477
1320.539, 81.80105
1321.021, 81.86623
1321.503, 81.95194
1321.986, 82.06519
1322.468, 82.20979
1322.95, 82.386
1323.432, 82.5905
1323.914, 82.81713
1324.396, 83.05778
1324.878, 83.3036
1325.36, 83.54551
1325.843, 83.77513
1326.325, 83.98505
1326.807, 84.16948
1327.289, 84.32458
1327.771, 84.44894
1328.253, 84.54371
1328.735, 84.6124
1329.218, 84.66014
1329.7, 84.69278
1330.182, 84.71581
1330.664, 84.73371
1331.146, 84.74935
1331.628, 84.76406
1332.11, 84.77785
1332.592, 84.7897
1333.074, 84.79787
1333.557, 84.8
1334.039, 84.79286
1334.521, 84.7719
1335.003, 84.73035
1335.485, 84.6586
1335.967, 84.54361
1336.449, 84.36977
1336.931, 84.12083
1337.414, 83.78407
1337.896, 83.35509
1338.378, 82.84322
1338.86, 82.27471
1339.342, 81.69288
1339.824, 81.15372
1340.306, 80.71726
1340.788, 80.43707
1341.271, 80.34996
1341.753, 80.46921
1342.235, 80.78268
1342.717, 81.25563
1343.199, 81.83774
1343.681, 82.47198
1344.163, 83.10368
1344.646, 83.68782
1345.128, 84.19319
1345.61, 84.6032
1346.092, 84.9134
1346.574, 85.12691
1347.056, 85.2495
1347.538, 85.28529
1348.02, 85.23447
1348.502, 85.09334
1348.985, 84.857
1349.467, 84.52399
1349.949, 84.10133
1350.431, 83.60883
1350.913, 83.08049
1351.395, 82.562
1351.877, 82.10448
1352.359, 81.75581
1352.842, 81.55134
1353.324, 81.50707
1353.806, 81.61693
1354.288, 81.85439
1354.77, 82.17803
1355.252, 82.53936
1355.734, 82.89069
1356.216, 83.19182
1356.698, 83.41413
1357.181, 83.54284
1357.663, 83.57734
1358.145, 83.5308
1358.627, 83.42918
1359.109, 83.30868
1359.591, 83.21218
1360.073, 83.1832
1360.556, 83.25906
1361.038, 83.46418
1361.52, 83.80537
1362.002, 84.27069
1362.484, 84.83192
1362.966, 85.45075
1363.448, 86.08653
1363.93, 86.70356
1364.413, 87.27596
1364.895, 87.78904
1365.377, 88.23783
1365.859, 88.62378
1366.341, 88.9516
1366.823, 89.22701
1367.305, 89.45586
1367.787, 89.64415
1368.27, 89.79807
1368.752, 89.92398
1369.234, 90.02782
1369.716, 90.11464
1370.198, 90.1882
1370.68, 90.25103
1371.162, 90.30491
1371.644, 90.3512
1372.126, 90.39098
1372.609, 90.42469
1373.091, 90.45211
1373.573, 90.47186
1374.055, 90.48204
1374.537, 90.48051
1375.019, 90.46589
1375.501, 90.43779
1375.984, 90.39679
1376.466, 90.3438
1376.948, 90.2797
1377.43, 90.20463
1377.912, 90.11823
1378.394, 90.01987
1378.876, 89.90891
1379.358, 89.78484
1379.841, 89.64722
1380.323, 89.49539
1380.805, 89.32876
1381.287, 89.14767
1381.769, 88.95451
1382.251, 88.75475
1382.733, 88.5572
1383.215, 88.37286
1383.698, 88.21275
1384.18, 88.08511
1384.662, 87.99347
1385.144, 87.9356
1385.626, 87.90457
1386.108, 87.89076
1386.59, 87.88451
1387.072, 87.87878
1387.554, 87.87053
1388.037, 87.86104
1388.519, 87.85535
1389.001, 87.86078
1389.483, 87.88582
1389.965, 87.93886
1390.447, 88.02756
1390.929, 88.15786
1391.411, 88.33313
1391.894, 88.55337
1392.376, 88.81483
1392.858, 89.1102
1393.34, 89.42957
1393.822, 89.7618
1394.304, 90.09631
1394.786, 90.42422
1395.269, 90.73916
1395.751, 91.03708
1396.233, 91.31556
1396.715, 91.5731
1397.197, 91.80865
1397.679, 92.02148
1398.161, 92.21132
1398.643, 92.37828
1399.125, 92.5228
1399.608, 92.64503
1400.09, 92.74464
1400.572, 92.82086
1401.054, 92.87296
1401.536, 92.90111
1402.018, 92.90698
1402.5, 92.89378
1402.982, 92.86557
1403.465, 92.82594
1403.947, 92.77713
1404.429, 92.71963
1404.911, 92.65279
1405.393, 92.57618
1405.875, 92.49093
1406.357, 92.40006
1406.839, 92.308
1407.322, 92.21879
1407.804, 92.13461
1408.286, 92.05482
1408.768, 91.97623
1409.25, 91.89454
1409.732, 91.80629
1410.214, 91.7104
1410.697, 91.60837
1411.179, 91.50341
1411.661, 91.3991
1412.143, 91.29788
1412.625, 91.20057
1413.107, 91.10679
1413.589, 91.01619
1414.071, 90.92907
1414.553, 90.84673
1415.036, 90.77078
1415.518, 90.70201
1416.0, 90.63973
1416.482, 90.58186
1416.964, 90.5254
1417.446, 90.46764
1417.928, 90.40709
1418.41, 90.34341
1418.893, 90.27676
1419.375, 90.20668
1419.857, 90.13129
1420.339, 90.0475
1420.821, 89.95192
1421.303, 89.84212
1421.785, 89.71733
1422.267, 89.57838
1422.75, 89.42664
1423.232, 89.26268
1423.714, 89.0853
1424.196, 88.89156
1424.678, 88.6775
1425.16, 88.43958
1425.642, 88.17565
1426.125, 87.88546
1426.607, 87.56974
1427.089, 87.22929
1427.571, 86.86378
1428.053, 86.47147
1428.535, 86.04926
1429.017, 85.59343
1429.499, 85.1003
1429.981, 84.56685
1430.464, 83.99085
1430.946, 83.37144
1431.428, 82.70939
1431.91, 82.00787
1432.392, 81.27256
1432.874, 80.51157
1433.356, 79.73422
1433.838, 78.94978
1434.321, 78.16648
1434.803, 77.3913
1435.285, 76.63052
1435.767, 75.89078
1436.249, 75.17952
1436.731, 74.50465
1437.213, 73.87264
1437.696, 73.28642
1438.177, 72.74339
1438.66, 72.23488
1439.142, 71.74652
1439.624, 71.25986
1440.106, 70.75373
1440.588, 70.20603
1441.07, 69.59494
1441.552, 68.90039
1442.035, 68.10494
1442.517, 67.19519
1442.999, 66.16283
1443.481, 65.00595
1443.963, 63.72977
1444.445, 62.34687
1444.927, 60.87636
1445.409, 59.34277
1445.892, 57.77466
1446.374, 56.20397
1446.856, 54.6652
1447.338, 53.19455
1447.82, 51.82754
1448.302, 50.59597
1448.784, 49.52475
1449.266, 48.63067
1449.749, 47.92412
1450.231, 47.41314
1450.713, 47.10771
1451.195, 47.02205
1451.677, 47.17329
1452.159, 47.57731
1452.641, 48.2436
1453.124, 49.17218
1453.605, 50.35396
1454.088, 51.7737
1454.57, 53.41281
1455.052, 55.24937
1455.534, 57.25431
1456.016, 59.38566
1456.498, 61.58487
1456.98, 63.77981
1457.463, 65.89521
1457.945, 67.86683
1458.427, 69.65214
1458.909, 71.23342
1459.391, 72.61307
1459.873, 73.80556
1460.355, 74.83028
1460.837, 75.70699
1461.32, 76.4543
1461.802, 77.08973
1462.284, 77.6296
1462.766, 78.08855
1463.248, 78.47819
1463.73, 78.80586
1464.212, 79.07398
1464.694, 79.28012
1465.177, 79.41795
1465.659, 79.47911
1466.141, 79.45483
1466.623, 79.33836
1467.105, 79.12751
1467.587, 78.82753
1468.069, 78.45373
1468.552, 78.03291
1469.033, 77.60256
1469.516, 77.20805
1469.998, 76.89719
1470.48, 76.71436
1470.962, 76.69446
1471.444, 76.85761
1471.926, 77.20575
1472.408, 77.72181
1472.891, 78.372
1473.373, 79.11141
1473.855, 79.89081
1474.337, 80.66296
1474.819, 81.38718
1475.301, 82.03127
1475.783, 82.57246
1476.265, 82.998
1476.748, 83.30549
1477.23, 83.50259
1477.712, 83.6051
1478.194, 83.6338
1478.676, 83.61017
1479.158, 83.55314
1479.64, 83.47688
1480.122, 83.39104
1480.604, 83.3017
1481.087, 83.2132
1481.569, 83.12918
1482.051, 83.05289
1482.533, 82.98675
1483.015, 82.93197
1483.497, 82.88821
1483.979, 82.85435
1484.461, 82.82923
1484.944, 82.81298
1485.426, 82.80746
1485.908, 82.81636
1486.39, 82.8446
1486.872, 82.89787
1487.354, 82.98186
1487.836, 83.10237
1488.319, 83.26479
1488.801, 83.47431
1489.283, 83.73476
1489.765, 84.04774
1490.247, 84.41123
1490.729, 84.81932
1491.211, 85.26208
1491.693, 85.72755
1492.176, 86.20353
1492.658, 86.67966
1493.14, 87.14815
1493.622, 87.60434
1494.104, 88.04549
1494.586, 88.47001
1495.068, 88.8765
1495.55, 89.2634
1496.032, 89.62896
1496.515, 89.97166
1496.997, 90.29044
1497.479, 90.58525
1497.961, 90.85717
1498.443, 91.10876
1498.925, 91.34412
1499.407, 91.56889
1499.89, 91.7895
1500.372, 92.01215
1500.854, 92.24097
1501.336, 92.47687
1501.818, 92.71701
1502.3, 92.95564
1502.782, 93.18581
1503.264, 93.40173
1503.747, 93.60049
1504.229, 93.78271
1504.711, 93.95177
1505.193, 94.11234
1505.675, 94.26812
1506.157, 94.42074
1506.639, 94.56931
1507.121, 94.71155
1507.604, 94.84553
1508.086, 94.97054
1508.568, 95.08708
1509.05, 95.19604
1509.532, 95.29713
1510.014, 95.38867
1510.496, 95.46771
1510.979, 95.53163
1511.46, 95.57954
1511.943, 95.61359
1512.425, 95.63841
1512.907, 95.66022
1513.389, 95.68449
1513.871, 95.71445
1514.353, 95.75043
1514.835, 95.79051
1515.318, 95.83164
1515.8, 95.87113
1516.282, 95.90713
1516.764, 95.93861
1517.246, 95.96474
1517.728, 95.98383
1518.21, 95.9936
1518.692, 95.99167
1519.175, 95.97674
1519.657, 95.94991
1520.139, 95.91522
1520.621, 95.8793
1521.103, 95.84981
1521.585, 95.83344
1522.067, 95.83396
1522.549, 95.85133
1523.031, 95.88229
1523.514, 95.9218
1523.996, 95.9644
1524.478, 96.00545
1524.96, 96.04161
1525.442, 96.07104
1525.924, 96.0933
1526.406, 96.10935
1526.888, 96.12104
1527.371, 96.13051
1527.853, 96.13944
1528.335, 96.14823
1528.817, 96.15569
1529.299, 96.15928
1529.781, 96.15594
1530.263, 96.14319
1530.746, 96.1202
1531.228, 96.08796
1531.71, 96.04901
1532.192, 96.00659
1532.674, 95.96346
1533.156, 95.92142
1533.638, 95.88136
1534.12, 95.84385
1534.603, 95.80984
1535.085, 95.78119
1535.567, 95.76008
1536.049, 95.74829
1536.531, 95.74622
1537.013, 95.75216
1537.495, 95.7627
1537.977, 95.77342
1538.459, 95.78051
1538.942, 95.78248
1539.424, 95.78056
1539.906, 95.77849
1540.388, 95.78046
1540.87, 95.78929
1541.352, 95.8051
1541.834, 95.82552
1542.316, 95.84687
1542.799, 95.86614
1543.281, 95.882
1543.763, 95.89529
1544.245, 95.90836
1544.727, 95.9237
1545.209, 95.94224
1545.691, 95.96274
1546.174, 95.98151
1546.656, 95.99368
1547.138, 95.99445
1547.62, 95.9807
1548.102, 95.95171
1548.584, 95.90989
1549.066, 95.85995
1549.548, 95.80832
1550.031, 95.76132
1550.513, 95.72405
1550.995, 95.69889
1551.477, 95.6854
1551.959, 95.6805
1552.441, 95.67981
1552.923, 95.67887
1553.405, 95.67472
1553.887, 95.66692
1554.37, 95.65761
1554.852, 95.65052
1555.334, 95.64954
1555.816, 95.65703
1556.298, 95.67269
1556.78, 95.69319
1557.262, 95.71277
1557.744, 95.72412
1558.227, 95.72021
1558.709, 95.69581
1559.191, 95.64884
1559.673, 95.5808
1560.155, 95.49616
1560.637, 95.40093
1561.119, 95.30148
1561.602, 95.20331
1562.083, 95.11096
1562.566, 95.02775
1563.048, 94.95556
1563.53, 94.89458
1564.012, 94.84321
1564.494, 94.79829
1564.976, 94.75555
1565.458, 94.71059
1565.941, 94.65993
1566.423, 94.60113
1566.905, 94.53295
1567.387, 94.45437
1567.869, 94.3642
1568.351, 94.26048
1568.833, 94.14088
1569.315, 94.00328
1569.798, 93.84717
1570.28, 93.67397
1570.762, 93.48763
1571.244, 93.29345
1571.726, 93.0969
1572.208, 92.90214
1572.69, 92.71069
1573.172, 92.52132
1573.655, 92.33014
1574.137, 92.13137
1574.619, 91.91861
1575.101, 91.6859
1575.583, 91.42898
1576.065, 91.1456
1576.547, 90.83525
1577.03, 90.49785
1577.511, 90.13245
1577.994, 89.73597
1578.476, 89.30296
1578.958, 88.82606
1579.44, 88.29716
1579.922, 87.70777
1580.404, 87.04954
1580.886, 86.31339
1581.369, 85.4883
1581.851, 84.55995
1582.333, 83.51063
1582.815, 82.32084
1583.297, 80.97269
1583.779, 79.45527
1584.261, 77.76992
1584.743, 75.93432
1585.226, 73.9843
1585.708, 71.97269
1586.19, 69.96587
1586.672, 68.03892
1587.154, 66.27032
1587.636, 64.73612
1588.118, 63.50352
1588.6, 62.62452
1589.083, 62.13016
1589.565, 62.02673
1590.047, 62.2953
1590.529, 62.89396
1591.011, 63.76279
1591.493, 64.82911
1591.975, 66.01324
1592.458, 67.23356
1592.939, 68.41183
1593.422, 69.47769
1593.904, 70.37301
1594.386, 71.05508
1594.868, 71.49846
1595.35, 71.69571
1595.832, 71.65704
1596.314, 71.40887
1596.797, 70.99149
1597.279, 70.45573
1597.761, 69.8591
1598.243, 69.26133
1598.725, 68.72012
1599.207, 68.28693
1599.689, 68.00303
1600.171, 67.89649
1600.654, 67.98032
1601.136, 68.25268
1601.618, 68.6992
1602.1, 69.29667
1602.582, 70.01721
1603.064, 70.83172
1603.546, 71.71249
1604.028, 72.6346
1604.51, 73.57677
1604.993, 74.52168
1605.475, 75.45626
1605.957, 76.37136
1606.439, 77.26086
1606.921, 78.12054
1607.403, 78.94684
1607.885, 79.73599
1608.367, 80.48394
1608.85, 81.18678
1609.332, 81.84109
1609.814, 82.44446
1610.296, 82.99517
1610.778, 83.49163
1611.26, 83.93205
1611.742, 84.31482
1612.225, 84.63941
1612.707, 84.90786
1613.189, 85.12607
1613.671, 85.30417
1614.153, 85.45635
1614.635, 85.59917
1615.117, 85.74992
1615.599, 85.92413
1616.082, 86.13358
1616.564, 86.38438
1617.046, 86.67676
1617.528, 87.00576
1618.01, 87.36304
1618.492, 87.73914
1618.974, 88.12476
1619.456, 88.51151
1619.938, 88.89246
1620.421, 89.26202
1620.903, 89.61662
1621.385, 89.95487
1621.867, 90.27793
1622.349, 90.58865
1622.831, 90.89027
1623.313, 91.18475
1623.796, 91.4715
1624.278, 91.74677
1624.76, 92.00443
1625.242, 92.23719
1625.724, 92.43874
1626.206, 92.60485
1626.688, 92.73425
1627.17, 92.82873
1627.653, 92.89304
1628.135, 92.93402
1628.617, 92.95999
1629.099, 92.97942
1629.581, 93.00007
1630.063, 93.02748
1630.545, 93.06429
1631.027, 93.10958
1631.51, 93.15951
1631.992, 93.20789
1632.474, 93.24828
1632.956, 93.27511
1633.438, 93.28522
1633.92, 93.27814
1634.402, 93.25571
1634.885, 93.22102
1635.366, 93.17715
1635.849, 93.12602
1636.331, 93.06816
1636.813, 93.00301
1637.295, 92.92976
1637.777, 92.84791
1638.259, 92.75742
1638.741, 92.65837
1639.224, 92.55053
1639.706, 92.43258
1640.188, 92.30245
1640.67, 92.15762
1641.152, 91.99612
1641.634, 91.81714
1642.116, 91.62181
1642.598, 91.41302
1643.081, 91.19492
1643.563, 90.97184
1644.045, 90.74762
1644.527, 90.52435
1645.009, 90.30206
1645.491, 90.07829
1645.973, 89.84883
1646.455, 89.6086
1646.938, 89.35379
1647.42, 89.08298
1647.902, 88.79845
1648.384, 88.50604
1648.866, 88.21381
1649.348, 87.93029
1649.83, 87.66282
1650.313, 87.41579
1650.794, 87.19058
1651.277, 86.98517
1651.759, 86.79507
1652.241, 86.61447
1652.723, 86.43785
1653.205, 86.26187
1653.687, 86.08588
1654.169, 85.91163
1654.652, 85.74155
1655.134, 85.5772
1655.616, 85.41892
1656.098, 85.26551
1656.58, 85.11581
1657.062, 84.96972
1657.544, 84.82912
1658.026, 84.6981
1658.509, 84.58218
1658.991, 84.48666
1659.473, 84.41474
1659.955, 84.3664
1660.437, 84.33826
1660.919, 84.32417
1661.401, 84.31706
1661.883, 84.31058
1662.365, 84.30085
1662.848, 84.28681
1663.33, 84.27008
1663.812, 84.25381
1664.294, 84.24191
1664.776, 84.23821
1665.258, 84.24646
1665.74, 84.27047
1666.222, 84.31448
1666.705, 84.38259
1667.187, 84.47811
1667.669, 84.60218
1668.151, 84.75321
1668.633, 84.92616
1669.115, 85.11366
1669.597, 85.30751
1670.08, 85.50048
1670.562, 85.68765
1671.044, 85.86697
1671.526, 86.03833
1672.008, 86.20283
1672.49, 86.36189
1672.972, 86.51666
1673.454, 86.66861
1673.937, 86.82001
1674.419, 86.97449
1674.901, 87.13699
1675.383, 87.31337
1675.865, 87.50925
1676.347, 87.72923
1676.829, 87.97611
1677.311, 88.25107
1677.793, 88.55391
1678.276, 88.8828
1678.758, 89.23427
1679.24, 89.60255
1679.722, 89.97964
1680.204, 90.35577
1680.686, 90.72087
1681.168, 91.06575
1681.65, 91.38332
1682.133, 91.66865
1682.615, 91.9186
1683.097, 92.13106
1683.579, 92.30473
1684.061, 92.43909
1684.543, 92.53439
1685.025, 92.59089
1685.508, 92.60857
1685.99, 92.58594
1686.472, 92.52006
1686.954, 92.4071
1687.436, 92.24392
1687.918, 92.0293
1688.4, 91.76503
1688.882, 91.45549
1689.365, 91.10638
1689.847, 90.72321
1690.329, 90.30997
1690.811, 89.86899
1691.293, 89.4017
1691.775, 88.90964
1692.257, 88.39499
1692.739, 87.85999
1693.221, 87.30592
1693.704, 86.73247
1694.186, 86.13891
1694.668, 85.5261
1695.15, 84.90028
1695.632, 84.27537
1696.114, 83.67258
1696.596, 83.11665
1697.078, 82.63132
1697.561, 82.23572
1698.043, 81.94389
1698.525, 81.76646
1699.007, 81.7123
1699.489, 81.78813
1699.971, 81.99628
1700.453, 82.33099
1700.936, 82.77735
1701.417, 83.31335
1701.9, 83.91532
1702.382, 84.56271
1702.864, 85.24035
1703.346, 85.93734
1703.828, 86.64391
1704.31, 87.34869
1704.792, 88.03737
1705.275, 88.69376
1705.757, 89.30254
1706.239, 89.85199
1706.721, 90.33548
1707.203, 90.7519
1707.685, 91.1044
1708.167, 91.39911
1708.649, 91.64488
1709.132, 91.85172
1709.614, 92.03
1710.096, 92.1888
1710.578, 92.33435
1711.06, 92.46909
1711.542, 92.59168
1712.024, 92.69852
1712.506, 92.78544
1712.989, 92.84949
1713.471, 92.8901
1713.953, 92.90865
1714.435, 92.90797
1714.917, 92.8913
1715.399, 92.86209
1715.881, 92.82401
1716.364, 92.78207
1716.845, 92.74238
1717.328, 92.71166
1717.81, 92.69547
1718.292, 92.69664
1718.774, 92.71446
1719.256, 92.74574
1719.738, 92.78669
1720.22, 92.83562
1720.703, 92.8942
1721.185, 92.96729
1721.667, 93.0614
1722.149, 93.18166
1722.631, 93.3297
1723.113, 93.5022
1723.595, 93.69173
1724.077, 93.88913
1724.56, 94.08616
1725.042, 94.2778
1725.524, 94.46228
1726.006, 94.63985
1726.488, 94.8101
1726.97, 94.97031
1727.452, 95.11453
1727.934, 95.23509
1728.417, 95.32504
1728.899, 95.38095
1729.381, 95.40485
1729.863, 95.40439
1730.345, 95.39107
1730.827, 95.37835
1731.309, 95.37843
1731.792, 95.4016
1732.273, 95.4547
1732.756, 95.54172
1733.238, 95.66331
1733.72, 95.81653
1734.202, 95.99458
1734.684, 96.18731
1735.166, 96.38261
1735.648, 96.56895
1736.131, 96.73743
1736.613, 96.88327
1737.095, 97.00602
1737.577, 97.10884
1738.059, 97.19698
1738.541, 97.27654
1739.023, 97.35258
1739.505, 97.42817
1739.988, 97.50375
1740.47, 97.57747
1740.952, 97.64569
1741.434, 97.70487
1741.916, 97.75224
1742.398, 97.78641
1742.88, 97.80785
1743.362, 97.81848
1743.844, 97.821
1744.327, 97.81815
1744.809, 97.81197
1745.291, 97.80362
1745.773, 97.79327
1746.255, 97.78073
1746.737, 97.7659
1747.219, 97.74949
1747.702, 97.73305
1748.184, 97.71888
1748.666, 97.70967
1749.148, 97.7079
1749.63, 97.71513
1750.112, 97.73172
1750.594, 97.75666
1751.076, 97.78755
1751.559, 97.82111
1752.041, 97.85368
1752.523, 97.88197
1753.005, 97.90388
1753.487, 97.91864
1753.969, 97.92722
1754.451, 97.93166
1754.933, 97.93439
1755.416, 97.93749
1755.898, 97.94176
1756.38, 97.94632
1756.862, 97.9493
1757.344, 97.94862
1757.826, 97.94333
1758.308, 97.93481
1758.791, 97.9266
1759.272, 97.92399
1759.755, 97.93188
1760.237, 97.9531
1760.719, 97.98721
1761.201, 98.0298
1761.683, 98.07388
1762.165, 98.11152
1762.647, 98.13665
1763.13, 98.14629
1763.612, 98.14133
1764.094, 98.12523
1764.576, 98.1028
1765.058, 98.07795
1765.54, 98.053
1766.022, 98.02842
1766.504, 98.00394
1766.987, 97.97911
1767.469, 97.95495
1767.951, 97.93354
1768.433, 97.91834
1768.915, 97.91264
1769.397, 97.91885
1769.879, 97.93745
1770.361, 97.96729
1770.844, 98.00536
1771.326, 98.04816
1771.808, 98.09213
1772.29, 98.1347
1772.772, 98.17422
1773.254, 98.20994
1773.736, 98.24093
1774.219, 98.26555
1774.7, 98.28101
1775.183, 98.28403
1775.665, 98.2719
1776.147, 98.24456
1776.629, 98.20586
1777.111, 98.16422
1777.593, 98.13118
1778.075, 98.11879
1778.558, 98.13538
1779.04, 98.18226
1779.522, 98.25191
1780.004, 98.32912
1780.486, 98.3943
1780.968, 98.42941
1781.45, 98.4231
1781.932, 98.3744
1782.415, 98.29314
1782.897, 98.19703
1783.379, 98.10683
1783.861, 98.04139
1784.343, 98.0133
1784.825, 98.02687
1785.307, 98.07829
1785.789, 98.15719
1786.271, 98.24934
1786.754, 98.33941
1787.236, 98.41307
1787.718, 98.45866
1788.2, 98.46853
1788.682, 98.44046
1789.164, 98.37827
1789.646, 98.29205
1790.128, 98.19643
1790.611, 98.1081
1791.093, 98.04169
1791.575, 98.00673
1792.057, 98.0049
1792.539, 98.0304
1793.021, 98.07207
1793.503, 98.11713
1793.986, 98.15523
1794.468, 98.18082
1794.95, 98.19323
1795.432, 98.19577
1795.914, 98.19345
1796.396, 98.19146
1796.878, 98.19418
1797.36, 98.20541
1797.843, 98.22832
1798.325, 98.26524
1798.807, 98.31673
1799.289, 98.38074
1799.771, 98.45137
1800.253, 98.51935
1800.735, 98.57396
1801.217, 98.60629
1801.699, 98.61223
1802.182, 98.59463
1802.664, 98.56242
1803.146, 98.52817
1803.628, 98.504
1804.11, 98.49807
1804.592, 98.5124
1805.074, 98.54362
1805.556, 98.58495
1806.039, 98.62986
1806.521, 98.67436
1807.003, 98.71827
1807.485, 98.76345
1807.967, 98.81157
1808.449, 98.86127
1808.931, 98.90732
1809.414, 98.94111
1809.896, 98.95388
1810.378, 98.9401
1810.86, 98.90031
1811.342, 98.84168
1811.824, 98.77666
1812.306, 98.71902
1812.788, 98.6803
1813.271, 98.66627
1813.753, 98.67605
1814.235, 98.70322
1814.717, 98.73862
1815.199, 98.77312
1815.681, 98.80064
1816.163, 98.81879
1816.645, 98.82904
1817.127, 98.83506
1817.61, 98.84143
1818.092, 98.85181
1818.574, 98.86871
1819.056, 98.89298
1819.538, 98.92465
1820.02, 98.96288
1820.502, 99.00669
1820.984, 99.05463
1821.467, 99.10471
1821.949, 99.1544
1822.431, 99.20088
1822.913, 99.24088
1823.395, 99.27106
1823.877, 99.28819
1824.359, 99.28947
1824.842, 99.27288
1825.323, 99.23819
1825.806, 99.18693
1826.288, 99.12296
1826.77, 99.05151
1827.252, 98.97828
1827.734, 98.90787
1828.216, 98.84273
1828.698, 98.78281
1829.181, 98.72645
1829.663, 98.67244
1830.145, 98.62191
1830.627, 98.57963
1831.109, 98.55331
1831.591, 98.55109
1832.073, 98.57822
1832.555, 98.63368
1833.038, 98.70943
1833.52, 98.7915
1834.002, 98.86389
1834.484, 98.91286
1834.966, 98.93104
1835.448, 98.91851
1835.93, 98.88207
1836.412, 98.83091
1836.895, 98.77317
1837.377, 98.71251
1837.859, 98.64869
1838.341, 98.57933
1838.823, 98.50339
1839.305, 98.42345
1839.787, 98.34629
1840.27, 98.28094
1840.751, 98.23564
1841.234, 98.21505
1841.716, 98.21918
1842.198, 98.24408
1842.68, 98.284
1843.162, 98.33269
1843.644, 98.38501
1844.126, 98.43611
1844.609, 98.48046
1845.091, 98.51141
1845.573, 98.52232
1846.055, 98.50904
1846.537, 98.47308
1847.019, 98.42329
1847.501, 98.37551
1847.983, 98.34838
1848.466, 98.35806
1848.948, 98.4116
1849.43, 98.5038
1849.912, 98.61685
1850.394, 98.72488
1850.876, 98.80089
1851.358, 98.82471
1851.84, 98.78782
1852.323, 98.69567
1852.805, 98.56479
1853.287, 98.41833
1853.769, 98.28002
1854.251, 98.16945
1854.733, 98.09872
1855.215, 98.07198
1855.698, 98.08536
1856.179, 98.12972
1856.662, 98.19237
1857.144, 98.261
1857.626, 98.32526
1858.108, 98.37943
1858.59, 98.42228
1859.072, 98.45692
1859.554, 98.48836
1860.037, 98.52163
1860.519, 98.56002
1861.001, 98.60465
1861.483, 98.65485
1861.965, 98.70894
1862.447, 98.76485
1862.929, 98.81973
1863.411, 98.86849
1863.894, 98.90383
1864.376, 98.91612
1864.858, 98.89693
1865.34, 98.84264
1865.822, 98.75845
1866.304, 98.65973
1866.786, 98.56976
1867.268, 98.51298
1867.75, 98.50745
1868.233, 98.55757
1868.715, 98.65199
1869.197, 98.76646
1869.679, 98.87184
1870.161, 98.94395
1870.643, 98.97141
1871.125, 98.95721
1871.608, 98.91552
1872.09, 98.86337
1872.572, 98.81358
1873.054, 98.77004
1873.536, 98.72853
1874.018, 98.68121
1874.5, 98.62324
1874.982, 98.55693
1875.465, 98.49309
1875.947, 98.44705
1876.429, 98.43288
1876.911, 98.45771
1877.393, 98.51873
1877.875, 98.60369
1878.357, 98.69578
1878.839, 98.7783
1879.322, 98.84002
1879.804, 98.87637
1880.286, 98.88924
1880.768, 98.88351
1881.25, 98.86408
1881.732, 98.83381
1882.214, 98.79303
1882.697, 98.74062
1883.178, 98.67588
1883.661, 98.59946
1884.143, 98.51424
1884.625, 98.42469
1885.107, 98.3354
1885.589, 98.24953
1886.071, 98.16895
1886.553, 98.09383
1887.036, 98.02473
1887.518, 97.96413
1888.0, 97.91891
1888.482, 97.89959
1888.964, 97.91914
1889.446, 97.9879
1889.928, 98.10938
1890.41, 98.27495
1890.893, 98.46436
1891.375, 98.64814
1891.857, 98.79585
1892.339, 98.8844
1892.821, 98.90539
1893.303, 98.86741
1893.785, 98.79333
1894.267, 98.7113
1894.75, 98.64565
1895.232, 98.60793
1895.714, 98.5946
1896.196, 98.58978
1896.678, 98.57289
1897.16, 98.5268
1897.642, 98.4444
1898.125, 98.32928
1898.606, 98.19416
1899.089, 98.05515
1899.571, 97.92935
1900.053, 97.83213
1900.535, 97.77802
1901.017, 97.7801
1901.499, 97.84948
1901.981, 97.99034
1902.464, 98.19663
1902.946, 98.44816
1903.428, 98.71318
1903.91, 98.95419
1904.392, 99.13731
1904.874, 99.24091
1905.356, 99.26075
1905.838, 99.20763
1906.321, 99.10214
1906.803, 98.9662
1907.285, 98.81926
1907.767, 98.6776
1908.249, 98.55835
1908.731, 98.48171
1909.213, 98.47017
1909.695, 98.53969
1910.177, 98.69038
1910.66, 98.89655
1911.142, 99.1071
1911.624, 99.25642
1912.106, 99.28539
1912.588, 99.16457
1913.07, 98.90985
1913.552, 98.58134
1914.034, 98.26561
1914.517, 98.04649
1914.999, 97.97858
1915.481, 98.07063
1915.963, 98.2865
1916.445, 98.55997
1916.927, 98.81943
1917.409, 99.01062
1917.892, 99.11121
1918.374, 99.12904
1918.856, 99.0919
1919.338, 99.03008
1919.82, 98.96647
1920.302, 98.91183
1920.784, 98.8698
1921.266, 98.84182
1921.749, 98.83168
1922.231, 98.8436
1922.713, 98.87887
1923.195, 98.93176
1923.677, 98.99049
1924.159, 99.04279
1924.641, 99.08342
1925.123, 99.11909
1925.605, 99.16679
1926.088, 99.24405
1926.57, 99.35727
1927.052, 99.49242
1927.534, 99.61544
1928.016, 99.68168
1928.498, 99.65364
1928.98, 99.51534
1929.462, 99.27958
1929.945, 98.98093
1930.427, 98.66133
1930.909, 98.35204
1931.391, 98.0641
1931.873, 97.78931
1932.355, 97.51305
1932.837, 97.228
1933.32, 96.94665
1933.802, 96.69872
1934.284, 96.52164
1934.766, 96.44136
1935.248, 96.45953
1935.73, 96.54747
1936.212, 96.65469
1936.694, 96.72614
1937.177, 96.72285
1937.659, 96.63511
1938.141, 96.48643
1938.623, 96.32238
1939.105, 96.195
1939.587, 96.14479
1940.069, 96.18995
1940.551, 96.32146
1941.033, 96.51039
1941.516, 96.7159
1941.998, 96.8997
1942.48, 97.03513
1942.962, 97.11667
1943.444, 97.16164
1943.926, 97.20801
1944.408, 97.3027
1944.89, 97.48653
1945.373, 97.77612
1945.855, 98.15366
1946.337, 98.56346
1946.819, 98.9231
1947.301, 99.14542
1947.783, 99.16893
1948.265, 98.97913
1948.748, 98.61852
1949.229, 98.17125
1949.712, 97.73738
1950.194, 97.40223
1950.676, 97.21711
1951.158, 97.19267
1951.64, 97.31006
1952.122, 97.53387
1952.604, 97.83018
1953.087, 98.17092
1953.569, 98.53042
1954.051, 98.87334
1954.533, 99.14772
1955.015, 99.28694
1955.497, 99.22747
1955.979, 98.93156
1956.461, 98.41147
1956.944, 97.73161
1957.426, 96.99923
1957.908, 96.33303
1958.39, 95.83222
1958.872, 95.55103
1959.354, 95.49149
1959.836, 95.61082
1960.318, 95.84719
1960.801, 96.14301
1961.283, 96.46638
1961.765, 96.81137
1962.247, 97.1888
1962.729, 97.60798
1963.211, 98.0651
1963.693, 98.53532
1964.176, 98.98055
1964.657, 99.356
1965.14, 99.62323
1965.622, 99.7562
1966.104, 99.74789
1966.586, 99.61121
1967.068, 99.38506
1967.55, 99.12874
1968.032, 98.91904
1968.515, 98.83387
1968.997, 98.93718
1969.479, 99.25806
1969.961, 99.77639
1970.443, 100.4137
1970.925, 101.0412
1971.407, 101.4999
1971.889, 101.6421
1972.372, 101.3651
1972.854, 100.6446
1973.336, 99.54153
1973.818, 98.19623
1974.3, 96.80013
1974.782, 95.55898
1975.264, 94.64788
1975.746, 94.17342
1976.229, 94.14748
1976.711, 94.48444
1977.193, 95.01641
1977.675, 95.53957
1978.157, 95.87553
1978.639, 95.93636
1979.121, 95.74957
1979.604, 95.44173
1980.085, 95.18069
1980.568, 95.1208
1981.05, 95.3564
1981.532, 95.90443
1982.014, 96.70119
1982.496, 97.62337
1982.978, 98.51797
1983.46, 99.24757
1983.943, 99.72312
1984.425, 99.92506
1984.907, 99.89663
1985.389, 99.72799
1985.871, 99.53194
1986.353, 99.41998
1986.835, 99.47917
1987.317, 99.75769
1987.8, 100.2474
1988.282, 100.8844
1988.764, 101.5526
1989.246, 102.1084
1989.728, 102.414
1990.21, 102.3803
1990.692, 101.9942
1991.174, 101.328
1991.656, 100.5148
1992.139, 99.71102
1992.621, 99.05131
1993.103, 98.61941
1993.585, 98.43519
1994.067, 98.46577
1994.549, 98.64296
1995.031, 98.89459
1995.514, 99.16171
1995.996, 99.41267
1996.478, 99.63713
1996.96, 99.83986
1997.442, 100.0286
1997.924, 100.2093
1998.406, 100.3813
1998.888, 100.5403
1999.371, 100.6737
1999.853, 100.7625
2000.335, 100.7783
2000.817, 100.6891
2001.299, 100.4699
2001.781, 100.1176
2002.263, 99.65912
2002.745, 99.15534
2003.228, 98.68227
2003.71, 98.31097
2004.192, 98.08019
2004.674, 97.98491
2005.156, 97.97918
2005.638, 98.00051
2006.12, 98.00233
2006.603, 97.98534
2007.084, 98.00263
2007.567, 98.1406
2008.049, 98.47295
2008.531, 99.01955
2009.013, 99.71915
2009.495, 100.4394
2009.977, 101.0132
2010.459, 101.2966
2010.942, 101.2128
2011.424, 100.775
2011.906, 100.0674
2012.388, 99.21227
2012.87, 98.32612
2013.352, 97.49744
2013.834, 96.77627
2014.316, 96.18961
2014.799, 95.75682
2015.281, 95.50484
2015.763, 95.4673
2016.245, 95.67341
2016.727, 96.12826
2017.209, 96.80256
2017.691, 97.62585
2018.173, 98.50807
2018.656, 99.35538
2019.138, 100.0986
2019.62, 100.6971
2020.102, 101.1386
2020.584, 101.4239
2021.066, 101.5574
2021.548, 101.5444
2022.031, 101.399
2022.512, 101.1476
2022.995, 100.838
2023.477, 100.5271
2023.959, 100.2664
2024.441, 100.0847
2024.923, 99.98066
2025.405, 99.92481
2025.887, 99.88204
2026.37, 99.83086
2026.852, 99.77917
2027.334, 99.76128
2027.816, 99.82291
2028.298, 99.99638
2028.78, 100.2842
2029.262, 100.6514
2029.744, 101.0408
2030.227, 101.3904
2030.709, 101.6562
2031.191, 101.8184
2031.673, 101.8737
2032.155, 101.816
2032.637, 101.6217
2033.119, 101.2473
2033.601, 100.6542
2034.083, 99.8392
2034.566, 98.86623
2035.048, 97.86728
2035.53, 97.01878
2036.012, 96.49139
2036.494, 96.39977
2036.976, 96.76632
2037.458, 97.51691
2037.94, 98.50107
2038.423, 99.53958
2038.905, 100.4707
2039.387, 101.1908
2039.869, 101.666
2040.351, 101.9221
2040.833, 102.0097
2041.315, 101.9758
2041.798, 101.8399
2042.28, 101.6017
2042.762, 101.2549
2043.244, 100.8129
2043.726, 100.317
2044.208, 99.83383
2044.69, 99.42868
2045.172, 99.14095
2045.655, 98.96658
2046.137, 98.86277
2046.619, 98.76817
2047.101, 98.63774
2047.583, 98.46659
2048.065, 98.30051
2048.547, 98.2141
2049.029, 98.28133
2049.511, 98.53648
2049.994, 98.95966
2050.476, 99.47994
2050.958, 100.0022
2051.44, 100.4395
2051.922, 100.7421
2052.404, 100.907
2052.886, 100.9736
2053.368, 101.0012
2053.851, 101.0454
2054.333, 101.1367
2054.815, 101.2713
2055.297, 101.4162
2055.779, 101.5266
2056.261, 101.562
2056.743, 101.501
2057.226, 101.3415
2057.708, 101.0973
2058.19, 100.7879
2058.672, 100.4336
2059.154, 100.0531
2059.636, 99.66791
2060.118, 99.3038
2060.6, 98.99356
2061.083, 98.76967
2061.565, 98.65993
2062.047, 98.67724
2062.529, 98.81633
2063.011, 99.05379
2063.493, 99.35463
2063.975, 99.67988
2064.457, 99.99657
2064.939, 100.2794
2065.422, 100.5121
2065.904, 100.6817
2066.386, 100.7765
2066.868, 100.7843
2067.35, 100.6945
2067.832, 100.5009
2068.314, 100.2054
2068.796, 99.81908
2069.279, 99.36317
2069.761, 98.86846
2070.243, 98.37612
2070.725, 97.9343
2071.207, 97.59586
2071.689, 97.40814
2072.171, 97.4045
2072.654, 97.59151
2073.135, 97.94447
2073.618, 98.40518
2074.1, 98.89242
2074.582, 99.31866
2075.064, 99.61375
2075.546, 99.74233
2076.028, 99.71326
2076.51, 99.57126
2076.993, 99.38002
2077.475, 99.19954
2077.957, 99.07159
2078.439, 99.01398
2078.921, 99.02611
2079.403, 99.0984
2079.885, 99.22371
2080.367, 99.39898
2080.85, 99.62222
2081.332, 99.88285
2081.814, 100.1556
2082.296, 100.3997
2082.778, 100.5698
2083.26, 100.6297
2083.742, 100.5689
2084.224, 100.4069
2084.707, 100.1888
2085.189, 99.96792
2085.671, 99.78788
2086.153, 99.66677
2086.635, 99.59462
2087.117, 99.53903
2087.599, 99.46307
2088.082, 99.33958
2088.563, 99.16355
2089.046, 98.95285
2089.528, 98.7412
2090.01, 98.56559
2090.492, 98.45589
2090.974, 98.42712
2091.456, 98.47915
2091.938, 98.59875
2092.421, 98.7643
2092.903, 98.94775
2093.385, 99.11726
2093.867, 99.23891
2094.349, 99.28303
2094.831, 99.23089
2095.313, 99.08577
2095.795, 98.87468
2096.278, 98.64626
2096.76, 98.45589
2097.242, 98.34986
2097.724, 98.34956
2098.206, 98.44575
2098.688, 98.603
2099.17, 98.77539
2099.652, 98.92334
2100.135, 99.02979
2100.617, 99.10336
2101.099, 99.17186
2101.581, 99.2655
2102.063, 99.40266
2102.545, 99.57897
2103.027, 99.77124
2103.51, 99.948
2103.991, 100.0872
2104.474, 100.1876
2104.956, 100.2725
2105.438, 100.3788
2105.92, 100.542
2106.402, 100.7765
2106.884, 101.0657
2107.366, 101.3619
2107.849, 101.5998
2108.331, 101.7153
2108.813, 101.6678
2109.295, 101.4518
2109.777, 101.0994
2110.259, 100.6677
2110.741, 100.2232
2111.223, 99.82156
2111.706, 99.49594
2112.188, 99.25262
2112.67, 99.07565
2113.152, 98.93707
2113.634, 98.81026
2114.116, 98.67948
2114.598, 98.54522
2115.08, 98.42239
2115.563, 98.33365
2116.045, 98.29939
2116.527, 98.32898
2117.009, 98.41567
2117.491, 98.53813
2117.973, 98.66555
2118.455, 98.76993
2118.938, 98.83479
2119.42, 98.86301
2119.902, 98.87553
2120.384, 98.90483
2120.866, 98.98192
2121.348, 99.12463
2121.83, 99.32726
2122.312, 99.56087
2122.794, 99.77853
2123.277, 99.93168
2123.759, 99.9856
2124.241, 99.93486
2124.723, 99.80867
2125.205, 99.66716
2125.687, 99.58538
2126.169, 99.63362
2126.651, 99.85432
2127.134, 100.2471
2127.616, 100.7616
2128.098, 101.3052
2128.58, 101.7635
2129.062, 102.0307
2129.544, 102.0417
2130.026, 101.7945
2130.509, 101.3502
2130.99, 100.8138
2131.473, 100.2976
2131.955, 99.88438
2132.437, 99.59822
2132.919, 99.39999
2133.401, 99.20268
2133.883, 98.91266
2134.365, 98.47482
2134.848, 97.91045
2135.33, 97.32047
2135.812, 96.85808
2136.294, 96.6731
2136.776, 96.85853
2137.258, 97.40953
2137.74, 98.2193
2138.222, 99.10463
2138.705, 99.86424
2139.187, 100.3429
2139.669, 100.4861
2140.151, 100.3518
2140.633, 100.0798
2141.115, 99.82762
2141.597, 99.71164
2142.079, 99.76323
2142.562, 99.92773
2143.044, 100.0891
2143.526, 100.1179
2144.008, 99.91901
2144.49, 99.4673
2144.972, 98.81262
2145.454, 98.06258
2145.937, 97.34634
2146.418, 96.78451
2146.901, 96.46641
2147.383, 96.44434
2147.865, 96.73129
2148.347, 97.3055
2148.829, 98.10509
2149.311, 99.03381
2149.793, 99.95827
2150.276, 100.7251
2150.758, 101.1843
2151.24, 101.2254
2151.722, 100.8108
2152.204, 99.99802
2152.686, 98.93204
2153.168, 97.81406
2153.65, 96.85023
2154.133, 96.20628
2154.615, 95.96926
2155.097, 96.13434
2155.579, 96.60913
2156.061, 97.24547
2156.543, 97.88315
2157.025, 98.4137
2157.507, 98.82198
2157.99, 99.20592
2158.472, 99.73505
2158.954, 100.5767
2159.436, 101.796
2159.918, 103.2953
2160.4, 104.82
2160.882, 106.0499
2161.365, 106.7082
2161.846, 106.6657
2162.329, 105.9737
2162.811, 104.8401
2163.293, 103.5495
2163.775, 102.3775
2164.257, 101.5046
2164.739, 100.988
2165.221, 100.7617
2165.704, 100.6948
2166.186, 100.6522
2166.668, 100.5585
2167.15, 100.4194
2167.632, 100.3097
2168.114, 100.3204
2168.596, 100.509
2169.078, 100.8612
2169.561, 101.2907
2170.043, 101.6672
2170.525, 101.873
2171.007, 101.8535
2171.489, 101.6473
2171.971, 101.3701
2172.453, 101.169
2172.935, 101.1556
2173.417, 101.3615
2173.9, 101.7198
2174.382, 102.0902
2174.864, 102.3095
2175.346, 102.2587
2175.828, 101.9067
2176.31, 101.324
2176.792, 100.644
2177.274, 100.01
2177.757, 99.51675
2178.239, 99.18296
2178.721, 98.95067
2179.203, 98.71956
2179.685, 98.38374
2180.167, 97.88306
2180.649, 97.22649
2181.132, 96.50288
2181.614, 95.85779
2182.096, 95.46207
2182.578, 95.46813
2183.06, 95.97473
2183.542, 96.99749
2184.024, 98.46396
2184.506, 100.2179
2184.989, 102.049
2185.471, 103.7251
2185.953, 105.0366
2186.435, 105.8322
2186.917, 106.0479
2187.399, 105.7054
2187.881, 104.9006
2188.363, 103.7648
2188.845, 102.4377
2189.328, 101.0421
2189.81, 99.67959
2190.292, 98.43347
2190.774, 97.37441
2191.256, 96.5584
2191.738, 96.0242
2192.22, 95.77891
2192.702, 95.79459
2193.185, 96.00614
2193.667, 96.32351
2194.149, 96.65062
2194.631, 96.91125
2195.113, 97.06304
2195.595, 97.1069
2196.077, 97.07362
2196.56, 97.00762
2197.042, 96.94572
2197.524, 96.90797
2198.006, 96.89748
2198.488, 96.91583
2198.97, 96.97551
2199.452, 97.11198
2199.934, 97.37861
2200.417, 97.83408
2200.899, 98.51684
2201.381, 99.42511
2201.863, 100.5012
2202.345, 101.6362
2202.827, 102.6876
2203.309, 103.5164
2203.791, 104.018
2204.273, 104.1507
2204.756, 103.9402
2205.238, 103.4687
2205.72, 102.8477
2206.202, 102.1898
2206.684, 101.581
2207.166, 101.0694
2207.648, 100.6608
2208.13, 100.3319
2208.613, 100.0441
2209.095, 99.76085
2209.577, 99.45885
2210.059, 99.13457
2210.541, 98.79774
2211.023, 98.46645
2211.505, 98.15673
2211.988, 97.87921
2212.469, 97.63966
2212.952, 97.44474
2213.434, 97.30544
2213.916, 97.24127
2214.398, 97.27276
2214.88, 97.41476
2215.362, 97.66473
2215.844, 97.99688
2216.327, 98.36224
2216.809, 98.69788
2217.291, 98.94173
2217.773, 99.05149
2218.255, 99.0136
2218.737, 98.84871
2219.219, 98.60035
2219.701, 98.32226
2220.184, 98.0622
2220.666, 97.8549
2221.148, 97.71882
2221.63, 97.65993
2222.112, 97.67574
2222.594, 97.76131
2223.076, 97.90829
2223.558, 98.10664
2224.041, 98.34325
2224.523, 98.60381
2225.005, 98.87534
2225.487, 99.15125
2225.969, 99.43062
2226.451, 99.71611
2226.933, 100.0042
2227.416, 100.2794
2227.897, 100.5079
2228.38, 100.6433
2228.862, 100.6376
2229.344, 100.4608
2229.826, 100.1127
2230.308, 99.63007
2230.79, 99.07777
2231.272, 98.53311
2231.755, 98.06419
2232.237, 97.71538
2232.719, 97.50173
2233.201, 97.41428
2233.683, 97.4309
2234.165, 97.53139
2234.647, 97.70286
2235.129, 97.94118
2235.612, 98.24047
2236.094, 98.5847
2236.576, 98.94043
2237.058, 99.26125
2237.54, 99.49799
2238.022, 99.61694
2238.504, 99.61129
2238.986, 99.5068
2239.469, 99.35145
2239.951, 99.19945
2240.433, 99.09084
2240.915, 99.04051
2241.397, 99.03309
2241.879, 99.03455
2242.361, 99.00744
2242.844, 98.92939
2243.326, 98.80309
2243.808, 98.65731
2244.29, 98.53561
2244.772, 98.48103
2245.254, 98.51986
2245.736, 98.65383
2246.218, 98.85999
2246.7, 99.10075
2247.183, 99.33687
2247.665, 99.54142
2248.147, 99.70569
2248.629, 99.8378
2249.111, 99.95162
2249.593, 100.056
2250.075, 100.1426
2250.557, 100.1863
2251.04, 100.1503
2251.522, 100.0019
2252.004, 99.72794
2252.486, 99.34534
2252.968, 98.90159
2253.45, 98.46411
2253.932, 98.10266
2254.415, 97.87101
2254.896, 97.79365
2255.379, 97.86321
2255.861, 98.04572
2256.343, 98.29471
2256.825, 98.56427
2257.307, 98.82021
2257.789, 99.04226
2258.271, 99.22203
2258.754, 99.35501
2259.236, 99.43668
2259.718, 99.45939
2260.2, 99.41653
2260.682, 99.30579
2261.164, 99.13457
2261.646, 98.91969
2262.128, 98.68575
2262.611, 98.45975
2263.093, 98.26804
2263.575, 98.13355
2264.057, 98.07671
2264.539, 98.11324
2265.021, 98.25437
2265.503, 98.50007
2265.985, 98.83463
2266.468, 99.2207
2266.95, 99.60161
2267.432, 99.90877
2267.914, 100.0792
2268.396, 100.0725
2268.878, 99.88663
2269.36, 99.5592
2269.843, 99.1598
2270.324, 98.77043
2270.807, 98.46496
2271.289, 98.29293
2271.771, 98.27283
2272.253, 98.39304
2272.735, 98.62214
2273.217, 98.91996
2273.699, 99.24783
2274.182, 99.57419
2274.664, 99.87565
2275.146, 100.1351
2275.628, 100.3412
2276.11, 100.4868
2276.592, 100.5716
2277.074, 100.6006
2277.556, 100.5824
2278.039, 100.5256
2278.521, 100.4333
2279.003, 100.3013
2279.485, 100.1203
2279.967, 99.88174
2280.449, 99.58672
2280.931, 99.25079
2281.413, 98.90508
2281.896, 98.58951
2282.378, 98.34217
2282.86, 98.18842
2283.342, 98.13393
2283.824, 98.16439
2284.306, 98.2524
2284.788, 98.36727
2285.271, 98.48512
2285.752, 98.59425
2286.235, 98.69508
2286.717, 98.79415
2287.199, 98.89836
2287.681, 99.00835
2288.163, 99.11746
2288.645, 99.21318
2289.127, 99.28226
2289.61, 99.31493
2290.092, 99.30798
2290.574, 99.26526
2291.056, 99.1969
2291.538, 99.11598
2292.02, 99.03706
2292.502, 98.97366
2292.984, 98.93701
2293.467, 98.93383
2293.949, 98.96504
2294.431, 99.02468
2294.913, 99.10053
2295.395, 99.17638
2295.877, 99.23691
2296.359, 99.27121
2296.841, 99.27657
2297.323, 99.25787
2297.806, 99.22477
2298.288, 99.187
2298.77, 99.15032
2299.252, 99.11415
2299.734, 99.0737
2300.216, 99.02318
2300.698, 98.96059
2301.18, 98.88969
2301.663, 98.81942
2302.145, 98.75971
2302.627, 98.71738
2303.109, 98.69224
2303.591, 98.67779
2304.073, 98.66431
2304.555, 98.64496
2305.038, 98.62005
2305.52, 98.59888
2306.002, 98.59635
2306.484, 98.62724
2306.966, 98.69861
2307.448, 98.80573
2307.93, 98.93141
2308.412, 99.05112
2308.895, 99.14002
2309.377, 99.18121
2309.859, 99.17046
2310.341, 99.11691
2310.823, 99.03868
2311.305, 98.95721
2311.787, 98.8898
2312.269, 98.84622
2312.751, 98.82674
2313.234, 98.82439
2313.716, 98.82861
2314.198, 98.82896
2314.68, 98.81786
2315.162, 98.79238
2315.644, 98.75362
2316.126, 98.7057
2316.608, 98.65372
2317.091, 98.60236
2317.573, 98.5547
2318.055, 98.51199
2318.537, 98.47401
2319.019, 98.44069
2319.501, 98.41306
2319.983, 98.39463
2320.466, 98.39048
2320.948, 98.40622
2321.43, 98.44526
2321.912, 98.50656
2322.394, 98.58304
2322.876, 98.66308
2323.358, 98.73318
2323.84, 98.78277
2324.323, 98.8077
2324.805, 98.81213
2325.287, 98.80714
2325.769, 98.8072
2326.251, 98.8252
2326.733, 98.86793
2327.215, 98.93314
2327.697, 99.00982
2328.179, 99.08083
2328.662, 99.12833
2329.144, 99.13923
2329.626, 99.10956
2330.108, 99.04545
2330.59, 98.96117
2331.072, 98.87463
2331.554, 98.80223
2332.036, 98.75465
2332.519, 98.73523
2333.001, 98.74023
2333.483, 98.76184
2333.965, 98.79086
2334.447, 98.82027
2334.929, 98.84664
2335.411, 98.87049
2335.894, 98.89497
2336.375, 98.92397
2336.858, 98.96027
2337.34, 99.00418
2337.822, 99.0533
2338.304, 99.10306
2338.786, 99.14809
2339.268, 99.18376
2339.75, 99.20723
2340.233, 99.2183
2340.715, 99.21862
2341.197, 99.2114
2341.679, 99.19966
2342.161, 99.18582
2342.643, 99.17097
2343.125, 99.15545
2343.607, 99.13898
2344.09, 99.12157
2344.572, 99.10408
2345.054, 99.08746
2345.536, 99.07228
2346.018, 99.0583
2346.5, 99.04377
2346.982, 99.02618
2347.464, 99.00286
2347.947, 98.97272
2348.429, 98.93657
2348.911, 98.89801
2349.393, 98.86217
2349.875, 98.83438
2350.357, 98.8185
2350.839, 98.81565
2351.322, 98.8237
2351.803, 98.83823
2352.286, 98.85339
2352.768, 98.86418
2353.25, 98.8675
2353.732, 98.86299
2354.214, 98.85258
2354.696, 98.84013
2355.178, 98.82954
2355.661, 98.82416
2356.143, 98.82583
2356.625, 98.83472
2357.107, 98.84931
2357.589, 98.86758
2358.071, 98.88712
2358.553, 98.9063
2359.035, 98.92413
2359.518, 98.9407
2360.0, 98.95648
2360.482, 98.97189
2360.964, 98.98652
2361.446, 98.99894
2361.928, 99.00677
2362.41, 99.00716
2362.892, 98.99784
2363.375, 98.97792
2363.857, 98.9482
2364.339, 98.91191
2364.821, 98.87327
2365.303, 98.83743
2365.785, 98.80904
2366.267, 98.79218
2366.75, 98.78954
2367.232, 98.80261
2367.714, 98.83135
2368.196, 98.87376
2368.678, 98.92519
2369.16, 98.9779
2369.642, 99.02092
2370.124, 99.04174
2370.606, 99.02852
2371.089, 98.9738
2371.571, 98.87746
2372.053, 98.7488
2372.535, 98.60588
2373.017, 98.47256
2373.499, 98.37314
2373.981, 98.32644
2374.463, 98.34114
2374.946, 98.41313
2375.428, 98.52667
2375.91, 98.65829
2376.392, 98.78313
2376.874, 98.88116
2377.356, 98.9422
2377.838, 98.96741
2378.321, 98.96774
2378.802, 98.95926
2379.285, 98.95789
2379.767, 98.9744
2380.249, 99.01132
2380.731, 99.06314
2381.213, 99.11801
2381.695, 99.16175
2382.177, 99.18186
2382.66, 99.17078
2383.142, 99.12814
2383.624, 99.06065
2384.106, 98.98078
2384.588, 98.90372
2385.07, 98.8438
2385.552, 98.81072
2386.034, 98.80688
2386.517, 98.82549
2386.999, 98.85202
2387.481, 98.86719
2387.963, 98.85221
2388.445, 98.79523
2388.927, 98.69596
2389.409, 98.56743
2389.891, 98.43374
2390.374, 98.32383
2390.856, 98.26282
2391.338, 98.26427
2391.82, 98.32555
2392.302, 98.42785
2392.784, 98.54202
2393.266, 98.63747
2393.749, 98.69154
2394.23, 98.69675
2394.713, 98.6617
2395.195, 98.60762
2395.677, 98.55961
2396.159, 98.53819
2396.641, 98.55247
2397.123, 98.59806
2397.605, 98.65994
2398.088, 98.71773
2398.57, 98.75282
2399.052, 98.75344
2399.534, 98.71677
2400.016, 98.64828
2400.498, 98.5586
2400.98, 98.46016
2401.462, 98.36469
2401.945, 98.28149
2402.427, 98.21741
2402.909, 98.17656
2403.391, 98.16019
2403.873, 98.16666
2404.355, 98.19083
2404.837, 98.22493
2405.319, 98.25977
2405.802, 98.28716
2406.284, 98.30171
2406.766, 98.30254
2407.248, 98.29266
2407.73, 98.27817
2408.212, 98.26546
2408.694, 98.25999
2409.177, 98.26514
2409.658, 98.28255
2410.141, 98.31209
2410.623, 98.35326
2411.105, 98.40367
2411.587, 98.45921
2412.069, 98.51257
2412.551, 98.55404
2413.033, 98.57277
2413.516, 98.5602
2413.998, 98.51337
2414.48, 98.43771
2414.962, 98.3467
2415.444, 98.25899
2415.926, 98.1936
2416.408, 98.16457
2416.89, 98.17702
2417.373, 98.22626
2417.855, 98.29983
2418.337, 98.38171
2418.819, 98.4567
2419.301, 98.51418
2419.783, 98.54851
2420.265, 98.55852
2420.747, 98.54514
2421.229, 98.51002
2421.712, 98.45552
2422.194, 98.38631
2422.676, 98.31052
2423.158, 98.24045
2423.64, 98.19003
2424.122, 98.17097
2424.604, 98.18724
2425.086, 98.23209
2425.569, 98.28723
2426.051, 98.32855
2426.533, 98.33278
2427.015, 98.28712
2427.497, 98.19434
2427.979, 98.0743
2428.461, 97.95759
2428.944, 97.87637
2429.426, 97.8536
2429.908, 97.89545
2430.39, 97.98907
2430.872, 98.10699
2431.354, 98.21559
2431.836, 98.28606
2432.318, 98.3015
2432.801, 98.26075
2433.283, 98.17593
2433.765, 98.06648
2434.247, 97.95212
2434.729, 97.84801
2435.211, 97.76274
2435.693, 97.70032
2436.175, 97.66282
2436.657, 97.65354
2437.14, 97.6776
2437.622, 97.74065
2438.104, 97.84518
2438.586, 97.98756
2439.068, 98.1558
2439.55, 98.33115
2440.032, 98.49088
2440.514, 98.61403
2440.997, 98.68629
2441.479, 98.70432
2441.961, 98.67616
2442.443, 98.61898
2442.925, 98.55397
2443.407, 98.49998
2443.889, 98.46803
2444.372, 98.45787
2444.854, 98.45855
2445.336, 98.45296
2445.818, 98.42415
2446.3, 98.3637
2446.782, 98.27549
2447.264, 98.17677
2447.746, 98.09285
2448.229, 98.04836
2448.711, 98.05768
2449.193, 98.11869
2449.675, 98.21142
2450.157, 98.30453
2450.639, 98.36514
2451.121, 98.37132
2451.604, 98.31999
2452.085, 98.22848
2452.568, 98.12907
2453.05, 98.05699
2453.532, 98.0385
2454.014, 98.08172
2454.496, 98.17392
2454.978, 98.28645
2455.46, 98.38351
2455.943, 98.43403
2456.425, 98.42027
2456.907, 98.34296
2457.389, 98.21925
2457.871, 98.07748
2458.353, 97.94849
2458.835, 97.85786
2459.317, 97.82001
2459.8, 97.83563
2460.282, 97.89242
2460.764, 97.96867
2461.246, 98.03943
2461.728, 98.08305
2462.21, 98.08667
2462.692, 98.04956
2463.174, 97.98192
2463.656, 97.90064
2464.139, 97.82264
2464.621, 97.75855
2465.103, 97.70891
2465.585, 97.66547
2466.067, 97.61529
2466.549, 97.548
2467.031, 97.46089
2467.513, 97.36144
2467.996, 97.26521
2468.478, 97.18964
2468.96, 97.1478
2469.442, 97.14401
2469.924, 97.17297
2470.406, 97.22333
2470.888, 97.28223
2471.371, 97.34
2471.853, 97.39139
2472.335, 97.43501
2472.817, 97.46987
2473.299, 97.49352
2473.781, 97.50169
2474.263, 97.49137
2474.745, 97.46317
2475.228, 97.42406
2475.71, 97.38589
2476.192, 97.36164
2476.674, 97.35998
2477.156, 97.38176
2477.638, 97.41962
2478.12, 97.46252
2478.602, 97.50108
2479.084, 97.53345
2479.567, 97.56622
2480.049, 97.61118
2480.531, 97.67767
2481.013, 97.76605
2481.495, 97.86362
2481.977, 97.94666
2482.459, 97.9874
2482.941, 97.96397
2483.424, 97.86823
2483.906, 97.71003
2484.388, 97.51397
2484.87, 97.31379
2485.352, 97.14349
2485.834, 97.03111
2486.316, 96.99475
2486.799, 97.04136
2487.281, 97.16685
2487.763, 97.35751
2488.245, 97.59016
2488.727, 97.83462
2489.209, 98.05759
2489.691, 98.22933
2490.173, 98.32994
2490.656, 98.35587
2491.138, 98.32063
2491.62, 98.25063
2492.102, 98.17625
2492.584, 98.12236
2493.066, 98.10081
2493.548, 98.10941
2494.03, 98.13503
2494.512, 98.16189
2494.995, 98.17819
2495.477, 98.1806
2495.959, 98.17281
2496.441, 98.16187
2496.923, 98.15285
2497.405, 98.14649
2497.887, 98.13977
2498.37, 98.12975
2498.852, 98.11772
2499.334, 98.11031
2499.816, 98.11719
2500.298, 98.14614
2500.78, 98.19762
2501.262, 98.26262
2501.744, 98.32443
2502.227, 98.3646
2502.709, 98.36974
2503.191, 98.33659
2503.673, 98.2722
2504.155, 98.19034
2504.637, 98.10536
2505.119, 98.02738
2505.601, 97.96004
2506.083, 97.90257
2506.566, 97.8529
2507.048, 97.81149
2507.53, 97.7816
2508.012, 97.76739
2508.494, 97.77034
2508.976, 97.78719
2509.458, 97.8101
2509.94, 97.8305
2510.423, 97.84373
2510.905, 97.85348
2511.387, 97.87096
2511.869, 97.91136
2512.351, 97.9866
2512.833, 98.09882
2513.315, 98.23681
2513.798, 98.37784
2514.28, 98.49368
2514.762, 98.55976
2515.244, 98.56281
2515.726, 98.50517
2516.208, 98.40378
2516.69, 98.28532
2517.172, 98.17796
2517.655, 98.10409
2518.137, 98.07477
2518.619, 98.08852
2519.101, 98.13129
2519.583, 98.18207
2520.065, 98.21803
2520.547, 98.22147
2521.029, 98.18478
2521.511, 98.11234
2521.994, 98.01983
2522.476, 97.92852
2522.958, 97.85909
2523.44, 97.82492
2523.922, 97.82869
2524.404, 97.86302
2524.886, 97.91437
2525.368, 97.96909
2525.851, 98.01828
2526.333, 98.05943
2526.815, 98.09366
2527.297, 98.12128
2527.779, 98.13684
2528.261, 98.12829
2528.743, 98.07967
2529.226, 97.97833
2529.708, 97.822
2530.19, 97.62359
2530.672, 97.40929
2531.154, 97.21307
2531.636, 97.06685
2532.118, 96.99192
2532.6, 96.99399
2533.083, 97.06379
2533.565, 97.18114
2534.047, 97.32191
2534.529, 97.46358
2535.011, 97.58869
2535.493, 97.68534
2535.975, 97.74642
2536.457, 97.76785
2536.939, 97.74886
2537.422, 97.69231
2537.904, 97.60607
2538.386, 97.50261
2538.868, 97.39796
2539.35, 97.3086
2539.832, 97.24948
2540.314, 97.23121
2540.796, 97.25953
2541.279, 97.33445
2541.761, 97.45057
2542.243, 97.59535
2542.725, 97.74979
2543.207, 97.88863
2543.689, 97.98502
2544.171, 98.01582
2544.654, 97.96951
2545.135, 97.85094
2545.618, 97.68312
2546.1, 97.5014
2546.582, 97.34404
2547.064, 97.24098
2547.546, 97.20551
2548.028, 97.23103
2548.51, 97.29507
2548.993, 97.36797
2549.475, 97.42337
2549.957, 97.44567
2550.439, 97.4337
2550.921, 97.39731
2551.403, 97.35218
2551.885, 97.31273
2552.367, 97.28848
2552.85, 97.28252
2553.332, 97.2933
2553.814, 97.31676
2554.296, 97.34843
2554.778, 97.38321
2555.26, 97.41562
2555.742, 97.43932
2556.224, 97.44836
2556.707, 97.43875
2557.189, 97.41103
2557.671, 97.37028
2558.153, 97.32584
2558.635, 97.28729
2559.117, 97.2617
2559.599, 97.25036
2560.082, 97.24854
2560.563, 97.24713
2561.046, 97.23592
2561.528, 97.2066
2562.01, 97.15584
2562.492, 97.0855
2562.974, 97.00275
2563.456, 96.91819
2563.938, 96.84438
2564.421, 96.79291
2564.903, 96.77297
2565.385, 96.78757
2565.867, 96.8326
2566.349, 96.89602
2566.831, 96.96069
2567.313, 97.00838
2567.795, 97.02666
2568.278, 97.01301
2568.76, 96.97691
2569.242, 96.93657
2569.724, 96.91219
2570.206, 96.91751
2570.688, 96.95429
2571.17, 97.01064
2571.652, 97.06553
2572.135, 97.09694
2572.617, 97.09097
2573.099, 97.04697
2573.581, 96.97818
2574.063, 96.90597
2574.545, 96.85218
2575.027, 96.83035
2575.51, 96.84225
2575.991, 96.87743
2576.474, 96.91844
2576.956, 96.94621
2577.438, 96.94667
2577.92, 96.9138
2578.402, 96.85043
2578.884, 96.76635
2579.366, 96.67542
2579.849, 96.59229
2580.331, 96.5303
2580.813, 96.49804
2581.295, 96.4987
2581.777, 96.52876
2582.259, 96.57903
2582.741, 96.63686
2583.223, 96.68959
2583.706, 96.7282
2584.188, 96.7494
2584.67, 96.75516
2585.152, 96.7506
2585.634, 96.74011
2586.116, 96.7253
2586.598, 96.70441
2587.08, 96.67484
2587.563, 96.63689
2588.045, 96.59653
2588.527, 96.56488
2589.009, 96.5554
2589.491, 96.57738
2589.973, 96.63124
2590.455, 96.70609
2590.938, 96.78216
2591.419, 96.83729
2591.902, 96.85466
2592.384, 96.82903
2592.866, 96.7682
2593.348, 96.6898
2593.83, 96.61476
2594.312, 96.56036
2594.794, 96.5359
2595.277, 96.5416
2595.759, 96.57235
2596.241, 96.61997
2596.723, 96.67746
2597.205, 96.73908
2597.687, 96.79932
2598.169, 96.8518
2598.651, 96.88879
2599.134, 96.90316
2599.616, 96.89156
2600.098, 96.85693
2600.58, 96.80916
2601.062, 96.76182
2601.544, 96.72801
2602.026, 96.71459
2602.508, 96.71952
2602.99, 96.73246
2603.473, 96.73942
2603.955, 96.72878
2604.437, 96.69704
2604.919, 96.65035
2605.401, 96.6033
2605.883, 96.57319
2606.365, 96.57402
2606.847, 96.61109
2607.33, 96.67947
2607.812, 96.7655
2608.294, 96.85107
2608.776, 96.91897
2609.258, 96.95727
2609.74, 96.96148
2610.222, 96.93449
2610.705, 96.8841
2611.187, 96.8205
2611.669, 96.75285
2612.151, 96.68797
2612.633, 96.62983
2613.115, 96.58025
2613.597, 96.54009
2614.079, 96.51079
2614.562, 96.49386
2615.044, 96.4918
2615.526, 96.50537
2616.008, 96.53323
2616.49, 96.57068
2616.972, 96.6105
2617.454, 96.64428
2617.936, 96.6657
2618.418, 96.67247
2618.901, 96.66776
2619.383, 96.65925
2619.865, 96.65702
2620.347, 96.66959
2620.829, 96.70157
2621.311, 96.75154
2621.793, 96.81295
2622.276, 96.8763
2622.758, 96.9316
2623.24, 96.97079
2623.722, 96.98891
2624.204, 96.98438
2624.686, 96.9581
2625.168, 96.91315
2625.65, 96.85448
2626.133, 96.78882
2626.615, 96.72392
2627.097, 96.66734
2627.579, 96.62446
2628.061, 96.59637
2628.543, 96.57927
2629.025, 96.56526
2629.507, 96.54521
2629.99, 96.51237
2630.472, 96.46501
2630.954, 96.40713
2631.436, 96.34626
2631.918, 96.28981
2632.4, 96.24115
2632.882, 96.1973
2633.364, 96.15038
2633.846, 96.09059
2634.329, 96.01166
2634.811, 95.91376
2635.293, 95.80546
2635.775, 95.70082
2636.257, 95.61545
2636.739, 95.56132
2637.221, 95.5438
2637.704, 95.56048
2638.186, 95.60313
2638.668, 95.66064
2639.15, 95.72202
2639.632, 95.77837
2640.114, 95.82336
2640.596, 95.85286
2641.078, 95.86439
2641.561, 95.85667
2642.043, 95.83038
2642.525, 95.78811
2643.007, 95.73457
2643.489, 95.67539
2643.971, 95.616
2644.453, 95.56024
2644.935, 95.50957
2645.417, 95.46372
2645.9, 95.42142
2646.382, 95.38167
2646.864, 95.34426
2647.346, 95.30946
2647.828, 95.27741
2648.31, 95.24762
2648.792, 95.21889
2649.274, 95.19019
2649.757, 95.1618
2650.239, 95.1354
2650.721, 95.11401
2651.203, 95.10001
2651.685, 95.09379
2652.167, 95.09221
2652.649, 95.08969
2653.132, 95.07996
2653.614, 95.05923
2654.096, 95.0285
2654.578, 94.99446
2655.06, 94.96733
2655.542, 94.95773
2656.024, 94.9726
2656.506, 95.01273
2656.989, 95.07208
2657.471, 95.13995
2657.953, 95.2044
2658.435, 95.25562
2658.917, 95.28805
2659.399, 95.30102
2659.881, 95.29715
2660.363, 95.28041
2660.845, 95.25455
2661.328, 95.22221
2661.81, 95.18456
2662.292, 95.14204
2662.774, 95.09415
2663.256, 95.03952
2663.738, 94.97559
2664.22, 94.89944
2664.702, 94.8084
2665.185, 94.70222
2665.667, 94.58421
2666.149, 94.4625
2666.631, 94.34843
2667.113, 94.25453
2667.595, 94.1909
2668.077, 94.16206
2668.56, 94.16595
2669.042, 94.19466
2669.524, 94.23709
2670.006, 94.28242
2670.488, 94.32308
2670.97, 94.35683
2671.452, 94.38595
2671.934, 94.41589
2672.417, 94.45251
2672.899, 94.5006
2673.381, 94.56197
2673.863, 94.6355
2674.345, 94.71721
2674.827, 94.80135
2675.309, 94.88083
2675.791, 94.94884
2676.273, 94.99958
2676.756, 95.03007
2677.238, 95.04055
2677.72, 95.03541
2678.202, 95.02186
2678.684, 95.00849
2679.166, 95.00316
2679.648, 95.0107
2680.13, 95.0325
2680.613, 95.0666
2681.095, 95.10911
2681.577, 95.15656
2682.059, 95.20703
2682.541, 95.26117
2683.023, 95.32088
2683.505, 95.38837
2683.988, 95.46433
2684.469, 95.54707
2684.952, 95.63177
2685.434, 95.71181
2685.916, 95.77975
2686.398, 95.82891
2686.88, 95.85468
2687.362, 95.85513
2687.844, 95.83167
2688.327, 95.78898
2688.809, 95.73392
2689.291, 95.67481
2689.773, 95.61938
2690.255, 95.5732
2690.737, 95.53831
2691.219, 95.51251
2691.701, 95.49022
2692.184, 95.46397
2692.666, 95.4269
2693.148, 95.37504
2693.63, 95.30814
2694.112, 95.22982
2694.594, 95.14606
2695.076, 95.06343
2695.558, 94.98689
2696.041, 94.91922
2696.523, 94.86055
2697.005, 94.80949
2697.487, 94.76408
2697.969, 94.72287
2698.451, 94.68544
2698.933, 94.65269
2699.416, 94.62596
2699.897, 94.60736
2700.38, 94.59881
2700.862, 94.60198
2701.344, 94.61791
2701.826, 94.64668
2702.308, 94.68734
2702.79, 94.7373
2703.272, 94.79301
2703.755, 94.8504
2704.237, 94.90539
2704.719, 94.95515
2705.201, 94.99829
2705.683, 95.03496
2706.165, 95.06665
2706.647, 95.09497
2707.129, 95.12134
2707.612, 95.14635
2708.094, 95.16942
2708.576, 95.18911
2709.058, 95.20388
2709.54, 95.21253
2710.022, 95.21494
2710.504, 95.21269
2710.986, 95.20925
2711.469, 95.20945
2711.951, 95.2184
2712.433, 95.24043
2712.915, 95.27756
2713.397, 95.32883
2713.879, 95.39034
2714.361, 95.4563
2714.844, 95.52082
2715.325, 95.5797
2715.808, 95.63152
2716.29, 95.67722
2716.772, 95.71875
2717.254, 95.75713
2717.736, 95.7909
2718.218, 95.81564
2718.7, 95.82543
2719.183, 95.81556
2719.665, 95.78442
2720.147, 95.73584
2720.629, 95.67804
2721.111, 95.6217
2721.593, 95.57671
2722.075, 95.549
2722.557, 95.53922
2723.04, 95.54346
2723.522, 95.55529
2724.004, 95.56898
2724.486, 95.58163
2724.968, 95.59424
2725.45, 95.61055
2725.932, 95.63494
2726.414, 95.66978
2726.896, 95.71421
2727.379, 95.76349
2727.861, 95.81055
2728.343, 95.84745
2728.825, 95.86823
2729.307, 95.8699
2729.789, 95.85308
2730.271, 95.82185
2730.753, 95.78249
2731.236, 95.7418
2731.718, 95.70605
2732.2, 95.67944
2732.682, 95.66331
2733.164, 95.65668
2733.646, 95.65658
2734.128, 95.65946
2734.611, 95.66303
2735.093, 95.6666
2735.575, 95.67171
2736.057, 95.68117
2736.539, 95.69749
2737.021, 95.72101
2737.503, 95.74918
2737.985, 95.77694
2738.468, 95.79794
2738.95, 95.80679
2739.432, 95.80073
2739.914, 95.78043
2740.396, 95.74973
2740.878, 95.71358
2741.36, 95.6768
2741.842, 95.64244
2742.324, 95.61223
2742.807, 95.58676
2743.289, 95.56736
2743.771, 95.55621
2744.253, 95.5564
2744.735, 95.57006
2745.217, 95.5975
2745.699, 95.63548
2746.182, 95.6778
2746.664, 95.71687
2747.146, 95.74605
2747.628, 95.76196
2748.11, 95.76543
2748.592, 95.76066
2749.074, 95.75353
2749.556, 95.74835
2750.039, 95.7466
2750.521, 95.74622
2751.003, 95.743
2751.485, 95.73289
2751.967, 95.71463
2752.449, 95.69059
2752.931, 95.66668
2753.413, 95.65031
2753.896, 95.64747
2754.378, 95.66075
2754.86, 95.68796
2755.342, 95.72302
2755.824, 95.75797
2756.306, 95.78573
2756.788, 95.80202
2757.27, 95.80684
2757.752, 95.80336
2758.235, 95.79658
2758.717, 95.7914
2759.199, 95.79037
2759.681, 95.79413
2760.163, 95.80097
2760.645, 95.80872
2761.127, 95.8158
2761.61, 95.82203
2762.092, 95.82802
2762.574, 95.83483
2763.056, 95.84266
2763.538, 95.85065
2764.02, 95.85721
2764.502, 95.8611
2764.984, 95.86273
2765.467, 95.86504
2765.949, 95.87221
2766.431, 95.88851
2766.913, 95.91602
2767.395, 95.95305
2767.877, 95.99384
2768.359, 96.03028
2768.841, 96.05434
2769.323, 96.06093
2769.806, 96.04942
2770.288, 96.02352
2770.77, 95.98898
2771.252, 95.95104
2771.734, 95.91196
2772.216, 95.87044
2772.698, 95.82306
2773.18, 95.76704
2773.663, 95.70277
2774.145, 95.63522
2774.627, 95.57289
2775.109, 95.52548
2775.591, 95.50021
2776.073, 95.49921
2776.555, 95.51891
2777.038, 95.55125
2777.52, 95.58654
2778.002, 95.61652
2778.484, 95.636
2778.966, 95.64371
2779.448, 95.64037
2779.93, 95.62753
2780.412, 95.60591
2780.895, 95.57521
2781.377, 95.53489
2781.859, 95.48548
2782.341, 95.42898
2782.823, 95.36908
2783.305, 95.30991
2783.787, 95.25469
2784.269, 95.20498
2784.751, 95.1607
2785.234, 95.12102
2785.716, 95.08552
2786.198, 95.0554
2786.68, 95.03317
2787.162, 95.0217
2787.644, 95.02242
2788.126, 95.03397
2788.608, 95.05159
2789.091, 95.06738
2789.573, 95.07238
2790.055, 95.05817
2790.537, 95.01946
2791.019, 94.9549
2791.501, 94.86774
2791.983, 94.76528
2792.466, 94.65713
2792.948, 94.55362
2793.43, 94.46357
2793.912, 94.39217
2794.394, 94.33987
2794.876, 94.30229
2795.358, 94.27103
2795.84, 94.23579
2796.323, 94.18787
2796.805, 94.12162
2797.287, 94.03648
2797.769, 93.93625
2798.251, 93.82775
2798.733, 93.71789
2799.215, 93.612
2799.697, 93.51212
2800.179, 93.41811
2800.662, 93.32844
2801.144, 93.24176
2801.626, 93.15759
2802.108, 93.07654
2802.59, 92.9988
2803.072, 92.92367
2803.554, 92.84885
2804.036, 92.7715
2804.519, 92.68926
2805.001, 92.6021
2805.483, 92.51249
2805.965, 92.4255
2806.447, 92.34646
2806.929, 92.27907
2807.411, 92.22421
2807.894, 92.17964
2808.375, 92.14143
2808.858, 92.10573
2809.34, 92.07108
2809.822, 92.03867
2810.304, 92.01133
2810.786, 91.99229
2811.268, 91.98232
2811.75, 91.9791
2812.233, 91.97662
2812.715, 91.96735
2813.197, 91.94392
2813.679, 91.90208
2814.161, 91.84149
2814.643, 91.76594
2815.125, 91.68212
2815.607, 91.59817
2816.09, 91.52086
2816.572, 91.45457
2817.054, 91.40017
2817.536, 91.35512
2818.018, 91.3139
2818.5, 91.26966
2818.982, 91.21542
2819.464, 91.14607
2819.947, 91.05906
2820.429, 90.95518
2820.911, 90.8378
2821.393, 90.71188
2821.875, 90.58199
2822.357, 90.45135
2822.839, 90.32023
2823.322, 90.18648
2823.803, 90.04547
2824.286, 89.89114
2824.768, 89.71669
2825.25, 89.51521
2825.732, 89.28017
2826.214, 89.0057
2826.696, 88.68724
2827.178, 88.32249
2827.661, 87.91183
2828.143, 87.45903
2828.625, 86.97057
2829.107, 86.45515
2829.589, 85.92216
2830.071, 85.38082
2830.553, 84.83942
2831.035, 84.30535
2831.518, 83.78497
2832.0, 83.28389
2832.482, 82.80637
2832.964, 82.35551
2833.446, 81.93226
2833.928, 81.53633
2834.41, 81.16678
2834.892, 80.82346
2835.375, 80.50809
2835.857, 80.22427
2836.339, 79.97578
2836.821, 79.76436
2837.303, 79.58649
2837.785, 79.43155
2838.267, 79.28203
2838.75, 79.11602
2839.231, 78.91135
2839.714, 78.65011
2840.196, 78.32185
2840.678, 77.92423
2841.16, 77.46088
2841.642, 76.9382
2842.124, 76.36102
2842.606, 75.73049
2843.089, 75.0433
2843.571, 74.29345
2844.053, 73.47429
2844.535, 72.58103
2845.017, 71.61245
2845.499, 70.57131
2845.981, 69.46415
2846.463, 68.30103
2846.946, 67.09465
2847.428, 65.85976
2847.91, 64.61217
2848.392, 63.36704
2848.874, 62.13721
2849.356, 60.93124
2849.838, 59.75256
2850.32, 58.59996
2850.802, 57.46938
2851.285, 56.35667
2851.767, 55.2604
2852.249, 54.18404
2852.731, 53.13633
2853.213, 52.13066
2853.695, 51.18317
2854.177, 50.31091
2854.659, 49.53044
2855.142, 48.85687
2855.624, 48.30379
2856.106, 47.88363
2856.588, 47.60736
2857.07, 47.48451
2857.552, 47.52236
2858.034, 47.72547
2858.517, 48.09488
2858.999, 48.6278
2859.481, 49.31757
2859.963, 50.15392
2860.445, 51.12328
2860.927, 52.20933
2861.409, 53.39377
2861.891, 54.65739
2862.374, 55.98084
2862.856, 57.34587
2863.338, 58.73582
2863.82, 60.13598
2864.302, 61.53272
2864.784, 62.91328
2865.266, 64.26482
2865.748, 65.57468
2866.23, 66.83092
2866.713, 68.02354
2867.195, 69.14519
2867.677, 70.1918
2868.159, 71.16183
2868.641, 72.05523
2869.123, 72.8721
2869.605, 73.61212
2870.088, 74.27446
2870.57, 74.8587
2871.052, 75.36565
2871.534, 75.79822
2872.016, 76.16091
2872.498, 76.45878
2872.98, 76.69631
2873.462, 76.87677
2873.945, 77.00191
2874.427, 77.07314
2874.909, 77.09221
2875.391, 77.06207
2875.873, 76.98669
2876.355, 76.87
2876.837, 76.71435
2877.319, 76.51989
2877.802, 76.2841
2878.284, 76.00298
2878.766, 75.67246
2879.248, 75.29003
2879.73, 74.85582
2880.212, 74.37242
2880.694, 73.84418
2881.176, 73.27637
2881.658, 72.67406
2882.141, 72.04203
2882.623, 71.38422
2883.105, 70.70432
2883.587, 70.00468
2884.069, 69.28637
2884.551, 68.54834
2885.033, 67.78755
2885.516, 66.99955
2885.998, 66.18024
2886.48, 65.32767
2886.962, 64.44373
2887.444, 63.53471
2887.926, 62.61013
2888.408, 61.68082
2888.89, 60.75605
2889.373, 59.84131
2889.855, 58.93707
2890.337, 58.03876
2890.819, 57.13869
2891.301, 56.2281
2891.783, 55.30011
2892.265, 54.35154
2892.747, 53.38392
2893.229, 52.40324
2893.712, 51.41864
2894.194, 50.44023
2894.676, 49.47736
2895.158, 48.5361
2895.64, 47.61876
2896.122, 46.72311
2896.604, 45.84348
2897.086, 44.97193
2897.569, 44.1005
2898.051, 43.22266
2898.533, 42.33516
2899.015, 41.4385
2899.497, 40.53719
2899.979, 39.63884
2900.461, 38.75318
2900.944, 37.89096
2901.426, 37.06291
2901.908, 36.27887
2902.39, 35.54744
2902.872, 34.87561
2903.354, 34.26868
2903.836, 33.73008
2904.318, 33.26138
2904.801, 32.86208
2905.283, 32.52966
2905.765, 32.25942
2906.247, 32.04456
2906.729, 31.87664
2907.211, 31.7463
2907.693, 31.64405
2908.175, 31.56158
2908.657, 31.49245
2909.14, 31.43254
2909.622, 31.3798
2910.104, 31.33341
2910.586, 31.29267
2911.068, 31.2562
2911.55, 31.22153
2912.032, 31.18597
2912.514, 31.14732
2912.997, 31.10554
2913.479, 31.06325
2913.961, 31.02605
2914.443, 31.00143
2914.925, 30.99729
2915.407, 31.02035
2915.889, 31.07496
2916.372, 31.16274
2916.854, 31.28296
2917.336, 31.43344
2917.818, 31.61155
2918.3, 31.81472
2918.782, 32.04072
2919.264, 32.28719
2919.746, 32.55129
2920.229, 32.82935
2920.711, 33.1169
2921.193, 33.40903
2921.675, 33.70139
2922.157, 33.99052
2922.639, 34.27461
2923.121, 34.55348
2923.603, 34.82832
2924.085, 35.10108
2924.568, 35.37363
2925.05, 35.64673
2925.532, 35.91968
2926.014, 36.18995
2926.496, 36.45347
2926.978, 36.70569
2927.46, 36.94283
2927.942, 37.16291
2928.425, 37.36692
2928.907, 37.55843
2929.389, 37.74326
2929.871, 37.92768
2930.353, 38.11715
2930.835, 38.31532
2931.317, 38.52377
2931.8, 38.7426
2932.281, 38.97175
2932.764, 39.21193
2933.246, 39.46554
2933.728, 39.73674
2934.21, 40.0309
2934.692, 40.35378
2935.174, 40.71091
2935.656, 41.10679
2936.139, 41.54474
2936.621, 42.02662
2937.103, 42.55266
2937.585, 43.12125
2938.067, 43.7291
2938.549, 44.37138
2939.031, 45.04286
2939.513, 45.7389
2939.996, 46.45662
2940.478, 47.19523
2940.96, 47.95583
2941.442, 48.73993
2941.924, 49.54831
2942.406, 50.37967
2942.888, 51.23071
2943.37, 52.09662
2943.853, 52.97253
2944.335, 53.85423
2944.817, 54.73867
2945.299, 55.62299
2945.781, 56.50323
2946.263, 57.37341
2946.745, 58.22581
2947.228, 59.05251
2947.709, 59.84768
2948.192, 60.60994
2948.674, 61.34326
2949.156, 62.05515
2949.638, 62.75443
2950.12, 63.44672
2950.602, 64.13251
2951.084, 64.80579
2951.567, 65.45617
2952.049, 66.07208
2952.531, 66.64452
2953.013, 67.16998
2953.495, 67.65152
2953.977, 68.09742
2954.459, 68.51928
2954.941, 68.92924
2955.424, 69.33797
2955.906, 69.75327
2956.388, 70.17915
2956.87, 70.61575
2957.352, 71.05882
2957.834, 71.50041
2958.316, 71.9304
2958.798, 72.33866
2959.281, 72.71831
2959.763, 73.06855
2960.245, 73.396
2960.727, 73.71348
2961.209, 74.03658
2961.691, 74.37932
2962.173, 74.74928
2962.656, 75.14572
2963.137, 75.55951
2963.62, 75.97665
2964.102, 76.38299
2964.584, 76.76882
2965.066, 77.13153
2965.548, 77.47559
2966.03, 77.8103
2966.512, 78.1458
2966.995, 78.48951
2967.477, 78.84412
2967.959, 79.20734
2968.441, 79.57377
2968.923, 79.93712
2969.405, 80.2929
2969.887, 80.64011
2970.369, 80.98094
2970.852, 81.31988
2971.334, 81.66173
2971.816, 82.00938
2972.298, 82.36201
2972.78, 82.71529
2973.262, 83.06139
2973.744, 83.39178
2974.226, 83.69907
2974.708, 83.97992
2975.191, 84.23577
2975.673, 84.47288
2976.155, 84.69981
2976.637, 84.92512
2977.119, 85.15424
2977.601, 85.38808
2978.083, 85.62328
2978.565, 85.85373
2979.048, 86.0732
2979.53, 86.27802
2980.012, 86.46791
2980.494, 86.6459
2980.976, 86.81653
2981.458, 86.9842
2981.94, 87.15125
2982.423, 87.31774
2982.905, 87.48148
2983.387, 87.63919
2983.869, 87.78748
2984.351, 87.9233
2984.833, 88.04397
2985.315, 88.1471
2985.797, 88.23056
2986.28, 88.29325
2986.762, 88.33549
2987.244, 88.36021
2987.726, 88.37234
2988.208, 88.37852
2988.69, 88.38493
2989.172, 88.39628
2989.654, 88.41427
2990.136, 88.43776
2990.619, 88.46358
2991.101, 88.4881
2991.583, 88.50878
2992.065, 88.52512
2992.547, 88.539
2993.029, 88.55373
2993.511, 88.57349
2993.994, 88.60193
2994.476, 88.64105
2994.958, 88.69086
2995.44, 88.7487
2995.922, 88.80889
2996.404, 88.86395
2996.886, 88.90559
2997.368, 88.92668
2997.851, 88.9239
2998.333, 88.89906
2998.815, 88.85978
2999.297, 88.81827
2999.779, 88.78831
3000.261, 88.78191
3000.743, 88.80621
3001.225, 88.86169
3001.708, 88.94298
3002.19, 89.04053
3002.672, 89.14449
3003.154, 89.247
3003.636, 89.34435
3004.118, 89.43658
3004.6, 89.52666
3005.082, 89.61774
3005.564, 89.71207
3006.047, 89.80938
3006.529, 89.90725
3007.011, 90.00172
3007.493, 90.08836
3007.975, 90.16351
3008.457, 90.22538
3008.939, 90.27416
3009.422, 90.31261
3009.904, 90.34573
3010.386, 90.37991
3010.868, 90.42171
3011.35, 90.47612
3011.832, 90.54516
3012.314, 90.62702
3012.796, 90.71615
3013.279, 90.80441
3013.761, 90.88338
3014.243, 90.94578
3014.725, 90.98747
3015.207, 91.00748
3015.689, 91.0076
3016.171, 90.99125
3016.653, 90.96262
3017.135, 90.92605
3017.618, 90.88577
3018.1, 90.84606
3018.582, 90.81113
3019.064, 90.78436
3019.546, 90.76769
3020.028, 90.76096
3020.51, 90.7616
3020.992, 90.76583
3021.475, 90.76964
3021.957, 90.77011
3022.439, 90.76597
3022.921, 90.75719
3023.403, 90.7439
3023.885, 90.72523
3024.367, 90.69846
3024.85, 90.66028
3025.332, 90.60791
3025.814, 90.54131
3026.296, 90.46435
3026.778, 90.38499
3027.26, 90.31324
3027.742, 90.25916
3028.224, 90.23003
3028.707, 90.22931
3029.189, 90.2561
3029.671, 90.30636
3030.153, 90.37435
3030.635, 90.4536
3031.117, 90.53767
3031.599, 90.62027
3032.081, 90.69518
3032.563, 90.75663
3033.046, 90.80038
3033.528, 90.82492
3034.01, 90.83197
3034.492, 90.82645
3034.974, 90.81467
3035.456, 90.80305
3035.938, 90.79555
3036.42, 90.79376
3036.903, 90.79702
3037.385, 90.80438
3037.867, 90.81572
3038.349, 90.83259
3038.831, 90.8569
3039.313, 90.8895
3039.795, 90.9277
3040.278, 90.96504
3040.76, 90.99211
3041.242, 91.00002
3041.724, 90.98357
3042.206, 90.94422
3042.688, 90.88964
3043.17, 90.83203
3043.652, 90.78309
3044.135, 90.7501
3044.617, 90.7329
3045.099, 90.72463
3045.581, 90.71416
3046.063, 90.69101
3046.545, 90.64909
3047.027, 90.58923
3047.509, 90.5182
3047.991, 90.44615
3048.474, 90.38246
3048.956, 90.33305
3049.438, 90.29854
3049.92, 90.27573
3050.402, 90.25924
3050.884, 90.24448
3051.366, 90.2285
3051.848, 90.21041
3052.331, 90.19019
3052.813, 90.167
3053.295, 90.13812
3053.777, 90.09963
3054.259, 90.04745
3054.741, 89.97987
3055.223, 89.89875
3055.706, 89.81066
3056.188, 89.72555
3056.67, 89.65446
3057.152, 89.6069
3057.634, 89.58823
3058.116, 89.59805
3058.598, 89.63071
3059.08, 89.67589
3059.563, 89.72131
3060.045, 89.75486
3060.527, 89.76714
3061.009, 89.75291
3061.491, 89.71195
3061.973, 89.64887
3062.455, 89.57253
3062.937, 89.49408
3063.419, 89.42489
3063.902, 89.37437
3064.384, 89.34808
3064.866, 89.34611
3065.348, 89.36386
3065.83, 89.39243
3066.312, 89.42176
3066.794, 89.44273
3067.276, 89.4499
3067.759, 89.44288
3068.241, 89.42618
3068.723, 89.40736
3069.205, 89.39497
3069.687, 89.39569
3070.169, 89.41295
3070.651, 89.44614
3071.134, 89.49183
3071.615, 89.5451
3072.098, 89.60149
3072.58, 89.65834
3073.062, 89.71447
3073.544, 89.76968
3074.026, 89.82333
3074.508, 89.87335
3074.99, 89.91613
3075.473, 89.94695
3075.955, 89.96204
3076.437, 89.95963
3076.919, 89.94158
3077.401, 89.91302
3077.883, 89.88139
3078.365, 89.85443
3078.847, 89.83833
3079.33, 89.83588
3079.812, 89.84703
3080.294, 89.86861
3080.776, 89.89631
3081.258, 89.92625
3081.74, 89.95632
3082.222, 89.98611
3082.704, 90.01704
3083.187, 90.05087
3083.669, 90.08828
3084.151, 90.12795
3084.633, 90.1664
3085.115, 90.19806
3085.597, 90.21716
3086.079, 90.21876
3086.562, 90.20094
3087.043, 90.16556
3087.526, 90.11864
3088.008, 90.06915
3088.49, 90.02794
3088.972, 90.00414
3089.454, 90.00423
3089.936, 90.02872
3090.418, 90.07284
3090.901, 90.12666
3091.383, 90.17793
3091.865, 90.21488
3092.347, 90.22948
3092.829, 90.21951
3093.311, 90.18913
3093.793, 90.14729
3094.275, 90.10503
3094.758, 90.07169
3095.24, 90.05271
3095.722, 90.04787
3096.204, 90.05251
3096.686, 90.05975
3097.168, 90.06372
3097.65, 90.06197
3098.132, 90.05667
3098.615, 90.05341
3099.097, 90.05871
3099.579, 90.07657
3100.061, 90.10654
3100.543, 90.14243
3101.025, 90.17468
3101.507, 90.19282
3101.99, 90.18992
3102.471, 90.16481
3102.954, 90.12371
3103.436, 90.07771
3103.918, 90.03983
3104.4, 90.02043
3104.882, 90.02386
3105.364, 90.04665
3105.846, 90.07886
3106.329, 90.10665
3106.811, 90.11697
3107.293, 90.1017
3107.775, 90.06017
3108.257, 89.99999
3108.739, 89.93477
3109.221, 89.8803
3109.703, 89.84977
3110.186, 89.84967
3110.668, 89.87798
3111.15, 89.92406
3111.632, 89.97173
3112.114, 90.0039
3112.596, 90.00765
3113.078, 89.97797
3113.56, 89.91902
3114.042, 89.84309
3114.525, 89.76595
3115.007, 89.70235
3115.489, 89.66134
3115.971, 89.64422
3116.453, 89.64493
3116.935, 89.65278
3117.417, 89.6568
3117.9, 89.64932
3118.382, 89.62833
3118.864, 89.59761
3119.346, 89.56477
3119.828, 89.53863
3120.31, 89.52696
3120.792, 89.5344
3121.274, 89.56261
3121.757, 89.61017
3122.239, 89.67349
3122.721, 89.74693
3123.203, 89.82278
3123.685, 89.89175
3124.167, 89.94375
3124.649, 89.97012
3125.131, 89.96581
3125.614, 89.93162
3126.096, 89.87518
3126.578, 89.80904
3127.06, 89.74799
3127.542, 89.70417
3128.024, 89.68353
3128.506, 89.68344
3128.988, 89.69412
3129.47, 89.70174
3129.953, 89.69356
3130.435, 89.66254
3130.917, 89.60976
3131.399, 89.5447
3131.881, 89.48158
3132.363, 89.43501
3132.845, 89.41507
3133.328, 89.42403
3133.81, 89.45586
3134.292, 89.49802
3134.774, 89.53532
3135.256, 89.55349
3135.738, 89.54352
3136.22, 89.50217
3136.702, 89.43279
3137.185, 89.34241
3137.667, 89.24004
3138.149, 89.13374
3138.631, 89.02997
3139.113, 88.93341
3139.595, 88.84813
3140.077, 88.77834
3140.559, 88.7286
3141.042, 88.7027
3141.524, 88.70193
3142.006, 88.72232
3142.488, 88.75386
3142.97, 88.78114
3143.452, 88.78687
3143.934, 88.75688
3144.417, 88.68559
3144.898, 88.57913
3145.381, 88.45544
3145.863, 88.33985
3146.345, 88.25813
3146.827, 88.22846
3147.309, 88.2561
3147.791, 88.33073
3148.273, 88.4302
3148.756, 88.52594
3149.238, 88.59227
3149.72, 88.61228
3150.202, 88.58237
3150.684, 88.51046
3151.166, 88.41295
3151.648, 88.30769
3152.13, 88.20993
3152.613, 88.12878
3153.095, 88.06742
3153.577, 88.02485
3154.059, 87.99802
3154.541, 87.98379
3155.023, 87.97903
3155.505, 87.98026
3155.987, 87.98308
3156.469, 87.98222
3156.952, 87.97311
3157.434, 87.95334
3157.916, 87.9248
3158.398, 87.89288
3158.88, 87.86616
3159.362, 87.85204
3159.844, 87.8545
3160.326, 87.87137
3160.809, 87.89465
3161.291, 87.91211
3161.773, 87.91228
3162.255, 87.8875
3162.737, 87.83739
3163.219, 87.76862
3163.701, 87.69299
3164.184, 87.62306
3164.666, 87.56875
3165.148, 87.5336
3165.63, 87.51492
3166.112, 87.50484
3166.594, 87.49369
3167.076, 87.47333
3167.558, 87.43927
3168.041, 87.39175
3168.523, 87.33456
3169.005, 87.27281
3169.487, 87.21075
3169.969, 87.15002
3170.451, 87.08931
3170.933, 87.02535
3171.415, 86.9549
3171.897, 86.87628
3172.38, 86.79099
3172.862, 86.70325
3173.344, 86.61906
3173.826, 86.54431
3174.308, 86.48289
3174.79, 86.43539
3175.272, 86.39908
3175.754, 86.36865
3176.237, 86.33835
3176.719, 86.30329
3177.201, 86.26173
3177.683, 86.2153
3178.165, 86.16878
3178.647, 86.12875
3179.129, 86.10189
3179.612, 86.09324
3180.094, 86.10473
3180.576, 86.13427
3181.058, 86.1765
3181.54, 86.22263
3182.022, 86.26247
3182.504, 86.28578
3182.986, 86.2839
3183.469, 86.25124
3183.951, 86.18686
3184.433, 86.0946
3184.915, 85.98266
3185.397, 85.8625
3185.879, 85.74709
3186.361, 85.64832
3186.843, 85.5752
3187.325, 85.53188
3187.808, 85.51743
3188.29, 85.52581
3188.772, 85.54765
3189.254, 85.57213
3189.736, 85.58969
3190.218, 85.59383
3190.7, 85.58223
3191.182, 85.55694
3191.665, 85.52334
3192.147, 85.48824
3192.629, 85.45786
3193.111, 85.43588
3193.593, 85.42261
3194.075, 85.4146
3194.557, 85.40596
3195.04, 85.38994
3195.521, 85.3614
3196.004, 85.31815
3196.486, 85.26171
3196.968, 85.19722
3197.45, 85.13181
3197.932, 85.07197
3198.414, 85.022
3198.896, 84.98228
3199.379, 84.94943
3199.861, 84.91776
3200.343, 84.88115
3200.825, 84.83585
3201.307, 84.78177
3201.789, 84.72324
3202.271, 84.66691
3202.753, 84.61961
3203.236, 84.58619
3203.718, 84.56672
3204.2, 84.55668
3204.682, 84.54786
3205.164, 84.53091
3205.646, 84.49815
3206.128, 84.44594
3206.61, 84.37556
3207.093, 84.29311
3207.575, 84.20736
3208.057, 84.1276
3208.539, 84.06195
3209.021, 84.0154
3209.503, 83.9898
3209.985, 83.98396
3210.468, 83.99469
3210.949, 84.01708
3211.432, 84.04612
3211.914, 84.07704
3212.396, 84.10565
3212.878, 84.12927
3213.36, 84.14677
3213.842, 84.1587
3214.324, 84.16646
3214.807, 84.17146
3215.289, 84.17377
3215.771, 84.17132
3216.253, 84.15958
3216.735, 84.13254
3217.217, 84.08434
3217.699, 84.01183
3218.181, 83.91624
3218.664, 83.80453
3219.146, 83.68861
3219.628, 83.58355
3220.11, 83.50409
3220.592, 83.46161
3221.074, 83.46115
3221.556, 83.50043
3222.038, 83.56989
3222.521, 83.65536
3223.003, 83.74054
3223.485, 83.81118
3223.967, 83.85717
3224.449, 83.87474
3224.931, 83.86539
3225.413, 83.83492
3225.896, 83.79066
3226.377, 83.7395
3226.86, 83.68608
3227.342, 83.63289
3227.824, 83.58017
3228.306, 83.52805
3228.788, 83.4766
3229.27, 83.42675
3229.752, 83.37968
3230.235, 83.33637
3230.717, 83.29638
3231.199, 83.25817
3231.681, 83.21967
3232.163, 83.17903
3232.645, 83.13628
3233.127, 83.09361
3233.609, 83.05498
3234.092, 83.0248
3234.574, 83.00649
3235.056, 83.00085
3235.538, 83.00566
3236.02, 83.01662
3236.502, 83.02831
3236.984, 83.03616
3237.466, 83.03735
3237.948, 83.0312
3238.431, 83.01834
3238.913, 82.99995
3239.395, 82.97655
3239.877, 82.94807
3240.359, 82.91351
3240.841, 82.87212
3241.323, 82.82336
3241.806, 82.76793
3242.288, 82.70689
3242.77, 82.64148
3243.252, 82.5729
3243.734, 82.50246
3244.216, 82.4318
3244.698, 82.36353
3245.18, 82.30132
3245.663, 82.24989
3246.145, 82.21368
3246.627, 82.19614
3247.109, 82.19828
3247.591, 82.21826
3248.073, 82.25152
3248.555, 82.29142
3249.037, 82.3299
3249.52, 82.35955
3250.002, 82.37383
3250.484, 82.36851
3250.966, 82.34214
3251.448, 82.29665
3251.93, 82.23683
3252.412, 82.1698
3252.894, 82.10298
3253.376, 82.04234
3253.859, 81.99031
3254.341, 81.94505
3254.823, 81.90056
3255.305, 81.84911
3255.787, 81.78347
3256.269, 81.69995
3256.751, 81.60015
3257.234, 81.49082
3257.716, 81.3822
3258.198, 81.28546
3258.68, 81.20962
3259.162, 81.16018
3259.644, 81.13809
3260.126, 81.14047
3260.608, 81.16141
3261.091, 81.19324
3261.573, 81.22696
3262.055, 81.25307
3262.537, 81.26202
3263.019, 81.24641
3263.501, 81.20249
3263.983, 81.13197
3264.465, 81.04342
3264.948, 80.95112
3265.43, 80.87225
3265.912, 80.82304
3266.394, 80.81414
3266.876, 80.84805
3267.358, 80.91782
3267.84, 81.00918
3268.323, 81.10324
3268.804, 81.18121
3269.287, 81.22757
3269.769, 81.2326
3270.251, 81.19339
3270.733, 81.11337
3271.215, 81.00102
3271.697, 80.86875
3272.179, 80.7311
3272.662, 80.6025
3273.144, 80.49538
3273.626, 80.4176
3274.108, 80.37097
3274.59, 80.35115
3275.072, 80.34909
3275.554, 80.3543
3276.036, 80.35825
3276.519, 80.35752
3277.001, 80.35408
3277.483, 80.35379
3277.965, 80.36223
3278.447, 80.3812
3278.929, 80.40544
3279.411, 80.42288
3279.893, 80.41785
3280.375, 80.37621
3280.858, 80.29105
3281.34, 80.16556
3281.822, 80.01347
3282.304, 79.85567
3282.786, 79.71435
3283.268, 79.60738
3283.75, 79.54401
3284.232, 79.52414
3284.715, 79.53954
3285.197, 79.57792
3285.679, 79.6265
3286.161, 79.67537
3286.643, 79.71843
3287.125, 79.75269
3287.607, 79.7767
3288.09, 79.78928
3288.572, 79.78882
3289.054, 79.77377
3289.536, 79.74364
3290.018, 79.69991
3290.5, 79.64603
3290.982, 79.58621
3291.464, 79.52361
3291.947, 79.45908
3292.429, 79.39046
3292.911, 79.31333
3293.393, 79.22314
3293.875, 79.11785
3294.357, 78.99944
3294.839, 78.87479
3295.321, 78.75448
3295.803, 78.65056
3296.286, 78.57351
3296.768, 78.5302
3297.25, 78.52221
3297.732, 78.54597
3298.214, 78.59325
3298.696, 78.65302
3299.178, 78.71325
3299.66, 78.76243
3300.143, 78.79182
3300.625, 78.7966
3301.107, 78.77681
3301.589, 78.73782
3302.071, 78.68806
3302.553, 78.63775
3303.035, 78.59493
3303.518, 78.56313
3304.0, 78.53992
3304.482, 78.51723
3304.964, 78.48452
3305.446, 78.4325
3305.928, 78.35662
3306.41, 78.25929
3306.892, 78.14921
3307.375, 78.03844
3307.857, 77.9388
3308.339, 77.85873
3308.821, 77.80142
3309.303, 77.766
3309.785, 77.74922
3310.267, 77.74815
3310.749, 77.76081
3311.231, 77.78643
3311.714, 77.82312
3312.196, 77.86607
3312.678, 77.90691
3313.16, 77.93494
3313.642, 77.93971
3314.124, 77.91505
3314.606, 77.86091
3315.088, 77.78445
3315.571, 77.69753
3316.053, 77.61363
3316.535, 77.54428
3317.017, 77.49665
3317.499, 77.47295
3317.981, 77.47151
3318.463, 77.48804
3318.946, 77.51649
3319.427, 77.54945
3319.91, 77.57789
3320.392, 77.59109
3320.874, 77.5783
3321.356, 77.53076
3321.838, 77.44505
3322.32, 77.32477
3322.802, 77.18037
3323.285, 77.02687
3323.767, 76.87936
3324.249, 76.74907
3324.731, 76.64058
3325.213, 76.55225
3325.695, 76.47837
3326.177, 76.41341
3326.659, 76.35491
3327.142, 76.30504
3327.624, 76.26938
3328.106, 76.25388
3328.588, 76.26202
3329.07, 76.29239
3329.552, 76.33875
3330.034, 76.39157
3330.516, 76.44075
3330.999, 76.47755
3331.481, 76.49609
3331.963, 76.49358
3332.445, 76.46989
3332.927, 76.42699
3333.409, 76.36932
3333.891, 76.30351
3334.374, 76.238
3334.855, 76.18169
3335.338, 76.1417
3335.82, 76.1207
3336.302, 76.11571
3336.784, 76.11783
3337.266, 76.1153
3337.748, 76.09671
3338.23, 76.05499
3338.713, 75.98936
3339.195, 75.90468
3339.677, 75.80936
3340.159, 75.71111
3340.641, 75.6143
3341.123, 75.51913
3341.605, 75.42269
3342.087, 75.32241
3342.57, 75.21876
3343.052, 75.11663
3343.534, 75.02481
3344.016, 74.95319
3344.498, 74.90912
3344.98, 74.89513
3345.462, 74.90767
3345.944, 74.93873
3346.427, 74.97855
3346.909, 75.01833
3347.391, 75.05248
3347.873, 75.07895
3348.355, 75.09775
3348.837, 75.10954
3349.319, 75.11364
3349.802, 75.10799
3350.283, 75.08944
3350.766, 75.05537
3351.248, 75.00505
3351.73, 74.94073
3352.212, 74.86661
3352.694, 74.78851
3353.176, 74.71201
3353.658, 74.6412
3354.141, 74.57862
3354.623, 74.52505
3355.105, 74.48051
3355.587, 74.44508
3356.069, 74.41916
3356.551, 74.40322
3357.033, 74.39681
3357.515, 74.39846
3357.998, 74.40402
3358.48, 74.40769
3358.962, 74.40262
3359.444, 74.38309
3359.926, 74.34536
3360.408, 74.28973
3360.89, 74.21976
3361.372, 74.14168
3361.854, 74.06174
3362.337, 73.98444
3362.819, 73.91078
3363.301, 73.83842
3363.783, 73.76297
3364.265, 73.67987
3364.747, 73.5872
3365.229, 73.48631
3365.712, 73.38245
3366.194, 73.28288
3366.676, 73.19468
3367.158, 73.1226
3367.64, 73.06798
3368.122, 73.02857
3368.604, 72.99999
3369.086, 72.97752
3369.569, 72.95751
3370.051, 72.93842
3370.533, 72.92071
3371.015, 72.90601
3371.497, 72.89654
3371.979, 72.89394
3372.461, 72.89909
3372.943, 72.91241
3373.426, 72.93346
3373.908, 72.96095
3374.39, 72.99278
3374.872, 73.02583
3375.354, 73.05598
3375.836, 73.07887
3376.318, 73.09051
3376.8, 73.08844
3377.282, 73.07202
3377.765, 73.04223
3378.247, 73.00142
3378.729, 72.95236
3379.211, 72.89747
3379.693, 72.83904
3380.175, 72.77947
3380.657, 72.72171
3381.14, 72.66959
3381.622, 72.62749
3382.104, 72.59911
3382.586, 72.58672
3383.068, 72.58919
3383.55, 72.60255
3384.032, 72.61986
3384.514, 72.63283
3384.997, 72.63371
3385.479, 72.61654
3385.961, 72.57821
3386.443, 72.5186
3386.925, 72.43983
3387.407, 72.34576
3387.889, 72.24127
3388.371, 72.1321
3388.854, 72.02495
3389.336, 71.92721
3389.818, 71.84673
3390.3, 71.79059
3390.782, 71.76373
3391.264, 71.76788
3391.746, 71.80029
3392.229, 71.85429
3392.71, 71.91998
3393.193, 71.98637
3393.675, 72.04346
3394.157, 72.08401
3394.639, 72.10448
3395.121, 72.105
3395.603, 72.08818
3396.085, 72.05812
3396.568, 72.01926
3397.05, 71.97607
3397.532, 71.93299
3398.014, 71.89497
3398.496, 71.86714
3398.978, 71.85468
3399.46, 71.86078
3399.942, 71.88551
3400.425, 71.92422
3400.907, 71.9679
3401.389, 72.00466
3401.871, 72.02278
3402.353, 72.01428
3402.835, 71.97742
3403.317, 71.91743
3403.799, 71.84526
3404.281, 71.77403
3404.764, 71.71517
3405.246, 71.67548
3405.728, 71.65565
3406.21, 71.65125
3406.692, 71.655
3407.174, 71.65954
3407.656, 71.65981
3408.138, 71.65369
3408.621, 71.6417
3409.103, 71.62563
3409.585, 71.60796
3410.067, 71.5909
3410.549, 71.57706
3411.031, 71.56967
3411.513, 71.57235
3411.996, 71.58841
3412.478, 71.61948
3412.96, 71.66331
3413.442, 71.71438
3413.924, 71.76452
3414.406, 71.80533
3414.888, 71.83167
3415.37, 71.84361
3415.853, 71.84693
3416.335, 71.8512
3416.817, 71.86643
3417.299, 71.89931
3417.781, 71.9507
3418.263, 72.01523
3418.745, 72.08341
3419.227, 72.14548
3419.709, 72.19423
3420.192, 72.22801
3420.674, 72.24997
3421.156, 72.26646
3421.638, 72.28324
3422.12, 72.30305
3422.602, 72.32393
3423.084, 72.34029
3423.566, 72.34507
3424.049, 72.33343
3424.531, 72.30521
3425.013, 72.26618
3425.495, 72.22669
3425.977, 72.19879
3426.459, 72.19254
3426.941, 72.2127
3427.424, 72.25732
3427.906, 72.31853
3428.388, 72.38491
3428.87, 72.4461
3429.352, 72.49493
3429.834, 72.53058
3430.316, 72.55703
3430.798, 72.58083
3431.281, 72.60739
3431.763, 72.63809
3432.245, 72.66907
3432.727, 72.69259
3433.209, 72.70026
3433.691, 72.68704
3434.173, 72.65347
3434.655, 72.60659
3435.137, 72.55775
3435.62, 72.51883
3436.102, 72.49896
3436.584, 72.50237
3437.066, 72.52834
3437.548, 72.57354
3438.03, 72.63376
3438.512, 72.70641
3438.994, 72.79024
3439.477, 72.8836
3439.959, 72.98258
3440.441, 73.08002
3440.923, 73.16646
3441.405, 73.23321
3441.887, 73.27591
3442.369, 73.29823
3442.852, 73.31104
3443.333, 73.33015
3443.816, 73.37083
3444.298, 73.44217
3444.78, 73.54364
3445.262, 73.66487
3445.744, 73.78928
3446.226, 73.89934
3446.708, 73.98267
3447.191, 74.03533
3447.673, 74.06179
3448.155, 74.07201
3448.637, 74.07667
3449.119, 74.08296
3449.601, 74.09249
3450.083, 74.10202
3450.565, 74.10615
3451.048, 74.10088
3451.53, 74.08607
3452.012, 74.06675
3452.494, 74.05136
3452.976, 74.04974
3453.458, 74.06999
3453.94, 74.11618
3454.422, 74.1879
3454.905, 74.2802
3455.387, 74.38546
3455.869, 74.49571
3456.351, 74.60462
3456.833, 74.70877
3457.315, 74.80843
3457.797, 74.90658
3458.28, 75.00752
3458.761, 75.11502
3459.244, 75.22987
3459.726, 75.34968
3460.208, 75.46854
3460.69, 75.5789
3461.172, 75.67333
3461.654, 75.74718
3462.136, 75.79987
3462.619, 75.83521
3463.101, 75.86033
3463.583, 75.88374
3464.065, 75.9132
3464.547, 75.95366
3465.029, 76.00633
3465.511, 76.06911
3465.993, 76.13674
3466.476, 76.20232
3466.958, 76.25896
3467.44, 76.30156
3467.922, 76.32787
3468.404, 76.33998
3468.886, 76.3438
3469.368, 76.34839
3469.85, 76.36309
3470.333, 76.39509
3470.815, 76.44644
3471.297, 76.51341
3471.779, 76.58714
3472.261, 76.65682
3472.743, 76.71354
3473.225, 76.75407
3473.708, 76.78271
3474.189, 76.80975
3474.672, 76.84815
3475.154, 76.9091
3475.636, 76.9974
3476.118, 77.11028
3476.6, 77.23769
3477.082, 77.36667
3477.564, 77.48439
3478.047, 77.58303
3478.529, 77.66026
3479.011, 77.71927
3479.493, 77.76579
3479.975, 77.80605
3480.457, 77.84444
3480.939, 77.884
3481.421, 77.92656
3481.904, 77.97512
3482.386, 78.03354
3482.868, 78.10762
3483.35, 78.20264
3483.832, 78.32203
3484.314, 78.46587
3484.796, 78.63024
3485.278, 78.80811
3485.76, 78.99064
3486.243, 79.1693
3486.725, 79.33762
3487.207, 79.49171
3487.689, 79.6301
3488.171, 79.75312
3488.653, 79.86141
3489.135, 79.95493
3489.618, 80.03258
3490.1, 80.09221
3490.582, 80.13201
3491.064, 80.15169
3491.546, 80.15407
3492.028, 80.14547
3492.51, 80.1358
3492.992, 80.13628
3493.475, 80.15677
3493.957, 80.20307
3494.439, 80.2751
3494.921, 80.36666
3495.403, 80.46729
3495.885, 80.56541
3496.367, 80.65259
3496.849, 80.72517
3497.332, 80.78542
3497.814, 80.83893
3498.296, 80.89252
3498.778, 80.95039
3499.26, 81.01337
3499.742, 81.0789
3500.224, 81.14369
3500.706, 81.20596
3501.188, 81.26678
3501.671, 81.33002
3502.153, 81.39995
3502.635, 81.47834
3503.117, 81.56265
3503.599, 81.64631
3504.081, 81.72134
3504.563, 81.78152
3505.046, 81.82612
3505.528, 81.86062
3506.01, 81.89516
3506.492, 81.94035
3506.974, 82.00338
3507.456, 82.08484
3507.938, 82.17898
3508.42, 82.27607
3508.903, 82.36678
3509.385, 82.44586
3509.867, 82.51416
3510.349, 82.57764
3510.831, 82.64351
3511.313, 82.71691
3511.795, 82.7979
3512.277, 82.88107
3512.76, 82.95795
3513.242, 83.0202
3513.724, 83.06363
3514.206, 83.08941
3514.688, 83.10452
3515.17, 83.11878
3515.652, 83.14292
3516.135, 83.18543
3516.616, 83.25167
3517.099, 83.34399
3517.581, 83.46265
3518.063, 83.60596
3518.545, 83.77101
3519.027, 83.95251
3519.509, 84.14259
3519.991, 84.33036
3520.474, 84.50314
3520.956, 84.6482
3521.438, 84.75584
3521.92, 84.82136
3522.402, 84.84618
3522.884, 84.83768
3523.366, 84.80785
3523.848, 84.77034
3524.331, 84.73873
3524.813, 84.72471
3525.295, 84.73726
3525.777, 84.78184
3526.259, 84.86079
3526.741, 84.97185
3527.223, 85.10907
3527.705, 85.26158
3528.188, 85.4154
3528.67, 85.55525
3529.152, 85.66767
3529.634, 85.74437
3530.116, 85.78542
3530.598, 85.79906
3531.08, 85.80096
3531.563, 85.81044
3532.044, 85.84541
3532.527, 85.91781
3533.009, 86.03059
3533.491, 86.17621
3533.973, 86.33923
3534.455, 86.49942
3534.937, 86.63747
3535.419, 86.73923
3535.902, 86.79912
3536.384, 86.82029
3536.866, 86.81327
3537.348, 86.79275
3537.83, 86.77328
3538.312, 86.7668
3538.794, 86.78072
3539.276, 86.81773
3539.759, 86.87686
3540.241, 86.95495
3540.723, 87.0477
3541.205, 87.15073
3541.687, 87.25928
3542.169, 87.36813
3542.651, 87.47201
3543.133, 87.5657
3543.615, 87.64533
3544.098, 87.7092
3544.58, 87.75936
3545.062, 87.8007
3545.544, 87.841
3546.026, 87.88824
3546.508, 87.94938
3546.99, 88.0274
3547.472, 88.12117
3547.955, 88.22525
3548.437, 88.3317
3548.919, 88.43165
3549.401, 88.51809
3549.883, 88.58683
3550.365, 88.63732
3550.847, 88.6722
3551.33, 88.6963
3551.812, 88.71445
3552.294, 88.7317
3552.776, 88.75121
3553.258, 88.77538
3553.74, 88.80534
3554.222, 88.84225
3554.704, 88.88702
3555.187, 88.94047
3555.669, 89.00256
3556.151, 89.07224
3556.633, 89.14687
3557.115, 89.22243
3557.597, 89.29394
3558.079, 89.35687
3558.561, 89.4077
3559.043, 89.44515
3559.526, 89.47038
3560.008, 89.48718
3560.49, 89.50086
3560.972, 89.51801
3561.454, 89.54477
3561.936, 89.58638
3562.418, 89.64611
3562.9, 89.72472
3563.383, 89.82033
3563.865, 89.9288
3564.347, 90.04407
3564.829, 90.15952
3565.311, 90.26863
3565.793, 90.36631
3566.275, 90.44949
3566.758, 90.51721
3567.24, 90.57047
3567.722, 90.61207
3568.204, 90.64584
3568.686, 90.67612
3569.168, 90.70724
3569.65, 90.74344
3570.132, 90.78777
3570.615, 90.84197
3571.097, 90.90562
3571.579, 90.97631
3572.061, 91.05027
3572.543, 91.12313
3573.025, 91.19189
3573.507, 91.25593
3573.989, 91.31741
3574.471, 91.38037
3574.954, 91.44804
3575.436, 91.52146
3575.918, 91.59708
3576.4, 91.66768
3576.882, 91.72403
3577.364, 91.75928
3577.846, 91.77222
3578.328, 91.76919
3578.811, 91.76328
3579.293, 91.77122
3579.775, 91.80695
3580.257, 91.87703
3580.739, 91.97719
3581.221, 92.09245
3581.703, 92.20114
3582.186, 92.28082
3582.667, 92.31413
3583.15, 92.29373
3583.632, 92.22313
3584.114, 92.11531
3584.596, 91.98808
3585.078, 91.86056
3585.56, 91.7492
3586.042, 91.66621
3586.525, 91.6189
3587.007, 91.61073
3587.489, 91.64108
3587.971, 91.70602
3588.453, 91.79836
3588.935, 91.90894
3589.417, 92.02762
3589.899, 92.14606
3590.382, 92.25944
3590.864, 92.36787
3591.346, 92.47556
3591.828, 92.58934
3592.31, 92.71471
3592.792, 92.85345
3593.274, 93.0019
3593.756, 93.15093
3594.239, 93.28822
3594.721, 93.40205
3595.203, 93.48312
3595.685, 93.52702
3596.167, 93.53304
3596.649, 93.5033
3597.131, 93.44119
3597.614, 93.3502
3598.095, 93.2347
3598.578, 93.10136
3599.06, 92.96017
3599.542, 92.82511
3600.024, 92.71149
3600.506, 92.634
3600.988, 92.60198
3601.47, 92.6171
3601.953, 92.67216
3602.435, 92.75386
3602.917, 92.84577
3603.399, 92.93319
3603.881, 93.00652
3604.363, 93.06361
3604.845, 93.10838
3605.327, 93.14948
3605.81, 93.19699
3606.292, 93.26003
3606.774, 93.34495
3607.256, 93.4549
3607.738, 93.58856
3608.22, 93.7411
3608.702, 93.90288
3609.184, 94.06015
3609.667, 94.19628
3610.149, 94.29443
3610.631, 94.34108
3611.113, 94.33031
3611.595, 94.2662
3612.077, 94.16438
3612.559, 94.0492
3613.042, 93.94911
3613.524, 93.88914
3614.006, 93.885
3614.488, 93.93841
3614.97, 94.03821
3615.452, 94.16332
3615.934, 94.2907
3616.416, 94.4011
3616.898, 94.48393
3617.381, 94.53867
3617.863, 94.57292
3618.345, 94.59775
3618.827, 94.62281
3619.309, 94.65318
3619.791, 94.68912
3620.273, 94.728
3620.755, 94.7674
3621.238, 94.80755
3621.72, 94.85197
3622.202, 94.9048
3622.684, 94.96883
3623.166, 95.04238
3623.648, 95.12016
3624.13, 95.19453
3624.612, 95.25935
3625.094, 95.31343
3625.577, 95.36121
3626.059, 95.41039
3626.541, 95.46826
3627.023, 95.53558
3627.505, 95.60506
3627.987, 95.66133
3628.469, 95.68632
3628.952, 95.6676
3629.434, 95.60613
3629.916, 95.51769
3630.398, 95.42979
3630.88, 95.37183
3631.362, 95.36597
3631.844, 95.41998
3632.326, 95.52534
3632.809, 95.66017
3633.291, 95.79604
3633.773, 95.90583
3634.255, 95.97114
3634.737, 95.98553
3635.219, 95.95512
3635.701, 95.8935
3636.183, 95.8177
3636.666, 95.74365
3637.148, 95.68423
3637.63, 95.64836
3638.112, 95.64178
3638.594, 95.66648
3639.076, 95.72083
3639.558, 95.79896
3640.041, 95.89086
3640.522, 95.98404
3641.005, 96.06646
3641.487, 96.12933
3641.969, 96.16982
3642.451, 96.19144
3642.933, 96.20327
3643.415, 96.21667
3643.897, 96.24206
3644.38, 96.28579
3644.862, 96.34958
3645.344, 96.42896
3645.826, 96.51437
3646.308, 96.59176
3646.79, 96.64434
3647.272, 96.6553
3647.754, 96.61163
3648.237, 96.50929
3648.719, 96.35787
3649.201, 96.18155
3649.683, 96.01633
3650.165, 95.90179
3650.647, 95.87006
3651.129, 95.93622
3651.611, 96.09293
3652.094, 96.31169
3652.576, 96.55174
3653.058, 96.7697
3653.54, 96.9324
3654.022, 97.02312
3654.504, 97.0444
3654.986, 97.01433
3655.469, 96.95996
3655.95, 96.90743
3656.433, 96.87649
3656.915, 96.87589
3657.397, 96.90519
3657.879, 96.957
3658.361, 97.02202
3658.843, 97.09024
3659.325, 97.1527
3659.808, 97.20183
3660.29, 97.23285
3660.772, 97.24503
3661.254, 97.24439
3661.736, 97.24359
3662.218, 97.26013
3662.7, 97.3113
3663.182, 97.40757
3663.665, 97.54708
3664.147, 97.71423
3664.629, 97.88177
3665.111, 98.01852
3665.593, 98.09773
3666.075, 98.10542
3666.557, 98.04329
3667.039, 97.92744
3667.521, 97.78169
3668.004, 97.63185
3668.486, 97.49797
3668.968, 97.39307
3669.45, 97.32236
3669.932, 97.28646
3670.414, 97.28387
3670.896, 97.31201
3671.378, 97.36764
3671.861, 97.44563
3672.343, 97.53831
3672.825, 97.63612
3673.307, 97.72952
3673.789, 97.81156
3674.271, 97.88004
3674.753, 97.93815
3675.236, 97.99357
3675.718, 98.05503
3676.2, 98.1284
3676.682, 98.21354
3677.164, 98.30376
3677.646, 98.38811
3678.128, 98.45493
3678.61, 98.49522
3679.093, 98.50491
3679.575, 98.48697
3680.057, 98.44977
3680.539, 98.4059
3681.021, 98.36825
3681.503, 98.34808
3681.985, 98.35137
3682.467, 98.3783
3682.949, 98.42333
3683.432, 98.47762
3683.914, 98.53082
3684.396, 98.57607
3684.878, 98.61081
3685.36, 98.63985
3685.842, 98.67278
3686.324, 98.72206
3686.806, 98.79866
3687.289, 98.9083
3687.771, 99.04787
3688.253, 99.20569
3688.735, 99.3631
3689.217, 99.49991
3689.699, 99.59917
3690.181, 99.65078
3690.664, 99.65236
3691.146, 99.6083
3691.628, 99.52702
3692.11, 99.41871
3692.592, 99.29386
3693.074, 99.1622
3693.556, 99.03242
3694.038, 98.91247
3694.521, 98.80826
3695.003, 98.72499
3695.485, 98.66534
3695.967, 98.63058
3696.449, 98.61945
3696.931, 98.63028
3697.413, 98.66021
3697.895, 98.7062
3698.377, 98.7651
3698.86, 98.83266
3699.342, 98.90257
3699.824, 98.96701
3700.306, 99.01589
3700.788, 99.0397
3701.27, 99.03142
3701.752, 98.98952
3702.234, 98.91945
3702.717, 98.83397
3703.199, 98.75056
3703.681, 98.68823
3704.163, 98.66245
3704.645, 98.68173
3705.127, 98.7446
3705.609, 98.83954
3706.092, 98.94624
3706.573, 99.04073
3707.056, 99.10062
3707.538, 99.11064
3708.02, 99.06646
3708.502, 98.97645
3708.984, 98.85914
3709.466, 98.73851
3709.948, 98.63776
3710.431, 98.57454
3710.913, 98.55674
3711.395, 98.58255
3711.877, 98.64171
3712.359, 98.72016
3712.841, 98.80286
3713.323, 98.87773
3713.805, 98.93568
3714.288, 98.97112
3714.77, 98.97991
3715.252, 98.96053
3715.734, 98.91356
3716.216, 98.84489
3716.698, 98.76582
3717.18, 98.69309
3717.662, 98.64539
3718.145, 98.63823
3718.627, 98.67778
3719.109, 98.75765
3719.591, 98.85792
3720.073, 98.95057
3720.555, 99.00701
3721.037, 99.0071
3721.52, 98.94656
3722.001, 98.83923
3722.484, 98.71313
3722.966, 98.60192
3723.448, 98.53476
3723.93, 98.52788
3724.412, 98.58046
3724.894, 98.67632
3725.376, 98.78923
3725.859, 98.89227
3726.341, 98.96442
3726.823, 98.99645
3727.305, 98.99062
3727.787, 98.95896
3728.269, 98.9172
3728.751, 98.88043
3729.233, 98.85975
3729.716, 98.8614
3730.198, 98.88702
3730.68, 98.9352
3731.162, 99.00137
3731.644, 99.07972
3732.126, 99.16246
3732.608, 99.24052
3733.09, 99.30481
3733.573, 99.34715
3734.055, 99.36116
3734.537, 99.34344
3735.019, 99.29326
3735.501, 99.21369
3735.983, 99.11175
3736.465, 98.99845
3736.948, 98.88774
3737.43, 98.79498
3737.912, 98.73373
3738.394, 98.71252
3738.876, 98.73154
3739.358, 98.78141
3739.84, 98.84351
3740.322, 98.89373
3740.804, 98.90877
3741.287, 98.87402
3741.769, 98.78813
3742.251, 98.66576
3742.733, 98.53474
3743.215, 98.43085
3743.697, 98.38706
3744.179, 98.42356
3744.661, 98.53896
3745.144, 98.70989
3745.626, 98.89809
3746.108, 99.06356
3746.59, 99.17429
3747.072, 99.21337
3747.554, 99.17847
3748.036, 99.08043
3748.518, 98.9389
3749.0, 98.77931
3749.483, 98.62703
3749.965, 98.50371
3750.447, 98.42247
3750.929, 98.38711
3751.411, 98.39256
3751.893, 98.42798
3752.375, 98.47997
3752.858, 98.53757
3753.34, 98.59431
3753.822, 98.64969
3754.304, 98.70761
3754.786, 98.77349
3755.268, 98.85086
3755.75, 98.93939
3756.232, 99.03415
3756.715, 99.12786
3757.197, 99.21279
3757.679, 99.28419
3758.161, 99.34084
3758.643, 99.3842
3759.125, 99.41559
3759.607, 99.43388
3760.089, 99.43475
3760.572, 99.41268
3761.054, 99.3639
3761.536, 99.29017
3762.018, 99.19949
3762.5, 99.10476
3762.982, 99.01923
3763.464, 98.95275
3763.947, 98.90841
3764.428, 98.883
3764.911, 98.86878
3765.393, 98.85852
3765.875, 98.84781
3766.357, 98.83743
3766.839, 98.83102
3767.321, 98.8315
3767.803, 98.83844
3768.286, 98.84748
3768.768, 98.8522
3769.25, 98.8483
3769.732, 98.83729
3770.214, 98.82744
3770.696, 98.8308
3771.178, 98.8577
3771.66, 98.91035
3772.143, 98.98063
3772.625, 99.05051
3773.107, 99.09888
3773.589, 99.10825
3774.071, 99.07307
3774.553, 99.00119
3775.035, 98.91235
3775.517, 98.83083
3776.0, 98.77802
3776.482, 98.76439
3776.964, 98.78799
3777.446, 98.83521
3777.928, 98.88664
3778.41, 98.92342
3778.892, 98.93258
3779.375, 98.90976
3779.856, 98.85909
3780.339, 98.79066
3780.821, 98.71709
3781.303, 98.65033
3781.785, 98.60037
3782.267, 98.57462
3782.749, 98.57771
3783.231, 98.61207
3783.714, 98.67792
3784.196, 98.77281
3784.678, 98.89194
3785.16, 99.02781
3785.642, 99.1712
3786.124, 99.31201
3786.606, 99.44026
3787.088, 99.54719
3787.571, 99.62647
3788.053, 99.67511
3788.535, 99.69356
3789.017, 99.68521
3789.499, 99.65489
3789.981, 99.6068
3790.463, 99.54359
3790.945, 99.46567
3791.427, 99.37315
3791.91, 99.26777
3792.392, 99.15498
3792.874, 99.0442
3793.356, 98.9477
3793.838, 98.8765
3794.32, 98.8374
3794.802, 98.82988
3795.284, 98.84624
3795.767, 98.87398
3796.249, 98.90058
3796.731, 98.91754
3797.213, 98.92281
3797.695, 98.91959
3798.177, 98.91342
3798.659, 98.90722
3799.142, 98.89989
3799.624, 98.88661
3800.106, 98.86204
3800.588, 98.82463
3801.07, 98.77996
3801.552, 98.74021
3802.034, 98.71936
3802.516, 98.72667
3802.999, 98.76232
3803.481, 98.81532
3803.963, 98.86797
3804.445, 98.90141
3804.927, 98.90246
3805.409, 98.86771
3805.891, 98.8047
3806.373, 98.72932
3806.855, 98.66096
3807.338, 98.61568
3807.82, 98.60231
3808.302, 98.6212
3808.784, 98.66608
3809.266, 98.72759
3809.748, 98.79549
3810.23, 98.8606
3810.712, 98.91542
3811.195, 98.95399
3811.677, 98.97324
3812.159, 98.97353
3812.641, 98.95958
3813.123, 98.93919
3813.605, 98.92173
3814.087, 98.91496
3814.57, 98.92267
3815.052, 98.94347
3815.534, 98.97168
3816.016, 98.99944
3816.498, 99.02142
3816.98, 99.03599
3817.462, 99.04627
3817.944, 99.05705
3818.427, 99.07262
3818.909, 99.09479
3819.391, 99.12177
3819.873, 99.15021
3820.355, 99.17667
3820.837, 99.19913
3821.319, 99.21715
3821.801, 99.23061
3822.283, 99.23798
3822.766, 99.23515
3823.248, 99.21675
3823.73, 99.17762
3824.212, 99.11614
3824.694, 99.03552
3825.176, 98.94413
3825.658, 98.85356
3826.14, 98.77602
3826.623, 98.72119
3827.105, 98.69506
3827.587, 98.69987
3828.069, 98.73503
3828.551, 98.79844
3829.033, 98.88564
3829.515, 98.98907
3829.998, 99.09724
3830.479, 99.19506
3830.962, 99.26662
3831.444, 99.29855
3831.926, 99.28558
3832.408, 99.2318
3832.89, 99.14988
3833.372, 99.05658
3833.854, 98.96798
3834.337, 98.89429
3834.819, 98.83839
3835.301, 98.7974
3835.783, 98.76611
3836.265, 98.7402
3836.747, 98.71821
3837.229, 98.70108
3837.711, 98.69051
3838.194, 98.68649
3838.676, 98.68711
3839.158, 98.69005
3839.64, 98.69517
3840.122, 98.70621
3840.604, 98.72973
3841.086, 98.77251
3841.568, 98.83769
3842.051, 98.92114
3842.533, 99.01207
3843.015, 99.09568
3843.497, 99.15893
3843.979, 99.19573
3844.461, 99.20866
3844.943, 99.20778
3845.426, 99.20519
3845.907, 99.20918
3846.39, 99.2209
3846.872, 99.23359
3847.354, 99.23679
3847.836, 99.22116
3848.318, 99.18295
3848.8, 99.12495
3849.282, 99.05574
3849.765, 98.98457
3850.247, 98.91842
3850.729, 98.86028
3851.211, 98.81029
3851.693, 98.76833
3852.175, 98.73743
3852.657, 98.72452
3853.139, 98.73857
3853.622, 98.78574
3854.104, 98.86532
3854.586, 98.96696
3855.068, 99.07375
3855.55, 99.16698
3856.032, 99.23209
3856.514, 99.26166
3856.996, 99.25656
3857.479, 99.22402
3857.961, 99.17467
3858.443, 99.12025
3858.925, 99.07072
3859.407, 99.03318
3859.889, 99.01067
3860.371, 99.00166
3860.854, 99.00107
3861.336, 99.00042
3861.818, 98.98974
3862.3, 98.96054
3862.782, 98.9086
3863.264, 98.83575
3863.746, 98.75083
3864.228, 98.66746
3864.71, 98.60165
3865.193, 98.56708
3865.675, 98.57233
3866.157, 98.61949
3866.639, 98.70577
3867.121, 98.82421
3867.603, 98.96594
3868.085, 99.12053
3868.567, 99.27554
3869.05, 99.41615
3869.532, 99.52686
3870.014, 99.59507
3870.496, 99.61546
3870.978, 99.59212
3871.46, 99.53798
3871.942, 99.47041
3872.424, 99.40503
3872.906, 99.35063
3873.389, 99.30747
3873.871, 99.26817
3874.353, 99.22287
3874.835, 99.16456
3875.317, 99.0934
3875.799, 99.01694
3876.281, 98.94756
3876.764, 98.89658
3877.246, 98.87007
3877.728, 98.86656
3878.21, 98.87821
3878.692, 98.89483
3879.174, 98.90764
3879.656, 98.91203
3880.138, 98.9083
3880.621, 98.89899
3881.103, 98.88625
3881.585, 98.86958
3882.067, 98.84735
3882.549, 98.81776
3883.031, 98.78188
3883.513, 98.74386
3883.995, 98.71056
3884.478, 98.68763
3884.96, 98.67749
3885.442, 98.67719
3885.924, 98.67986
3886.406, 98.67803
3886.888, 98.66785
3887.37, 98.65096
3887.853, 98.63414
3888.334, 98.62622
3888.817, 98.63433
3889.299, 98.66042
3889.781, 98.7016
3890.263, 98.75116
3890.745, 98.80106
3891.227, 98.8447
3891.709, 98.87794
3892.192, 98.89804
3892.674, 98.90253
3893.156, 98.88796
3893.638, 98.85112
3894.12, 98.7907
3894.602, 98.71033
3895.084, 98.61861
3895.566, 98.52861
3896.049, 98.45364
3896.531, 98.40382
3897.013, 98.38277
3897.495, 98.38803
3897.977, 98.41316
3898.459, 98.45113
3898.941, 98.4976
3899.423, 98.55177
3899.906, 98.61453
3900.388, 98.68559
3900.87, 98.7606
3901.352, 98.83115
3901.834, 98.88656
3902.316, 98.91784
3902.798, 98.92046
3903.281, 98.89601
3903.762, 98.84983
3904.245, 98.7884
3904.727, 98.71491
3905.209, 98.6298
3905.691, 98.5313
3906.173, 98.41952
3906.655, 98.29944
3907.137, 98.18221
3907.62, 98.08256
3908.102, 98.01411
3908.584, 97.98416
3909.066, 97.99035
3909.548, 98.02139
3910.03, 98.06101
3910.512, 98.09439
3910.994, 98.11395
3911.477, 98.12258
3911.959, 98.13177
3912.441, 98.15727
3912.923, 98.21252
3913.405, 98.30331
3913.887, 98.42516
3914.369, 98.56342
3914.851, 98.698
3915.333, 98.80742
3915.816, 98.87465
3916.298, 98.89037
3916.78, 98.85509
3917.262, 98.77811
3917.744, 98.67481
3918.226, 98.56275
3918.708, 98.45706
3919.19, 98.36776
3919.673, 98.29801
3920.155, 98.24499
3920.637, 98.20299
3921.119, 98.16555
3921.601, 98.13004
3922.083, 98.09765
3922.565, 98.07356
3923.048, 98.06367
3923.53, 98.07203
3924.012, 98.09767
3924.494, 98.13531
3924.976, 98.17646
3925.458, 98.21365
3925.94, 98.24342
3926.422, 98.26823
3926.905, 98.29525
3927.387, 98.33363
3927.869, 98.38913
3928.351, 98.46269
3928.833, 98.54787
3929.315, 98.63329
3929.797, 98.70558
3930.279, 98.75381
3930.761, 98.77214
3931.244, 98.76173
3931.726, 98.72967
3932.208, 98.68771
3932.69, 98.64838
3933.172, 98.62249
3933.654, 98.61674
3934.136, 98.63219
3934.618, 98.66385
3935.101, 98.70114
3935.583, 98.72971
3936.065, 98.73527
3936.547, 98.70647
3937.029, 98.63892
3937.511, 98.5369
3937.993, 98.41343
3938.476, 98.28743
3938.958, 98.17907
3939.44, 98.10558
3939.922, 98.07697
3940.404, 98.09481
3940.886, 98.15236
3941.368, 98.23709
3941.85, 98.3339
3942.333, 98.42836
3942.815, 98.50854
3943.297, 98.56615
3943.779, 98.59718
3944.261, 98.60037
3944.743, 98.57662
3945.225, 98.52806
3945.707, 98.45779
3946.189, 98.36907
3946.672, 98.26653
3947.154, 98.15633
3947.636, 98.04694
3948.118, 97.94939
3948.6, 97.87527
3949.082, 97.83573
3949.564, 97.83811
3950.046, 97.88378
3950.529, 97.96667
3951.011, 98.07473
3951.493, 98.19272
3951.975, 98.30598
3952.457, 98.4043
3952.939, 98.48346
3953.421, 98.54537
3953.904, 98.5947
3954.385, 98.63637
3954.868, 98.67142
3955.35, 98.69722
3955.832, 98.70818
3956.314, 98.69843
3956.796, 98.66476
3957.278, 98.60873
3957.76, 98.53632
3958.243, 98.45705
3958.725, 98.38106
3959.207, 98.31815
3959.689, 98.2756
3960.171, 98.25816
3960.653, 98.26689
3961.135, 98.29971
3961.617, 98.35075
3962.1, 98.41155
3962.582, 98.4716
3963.064, 98.52242
3963.546, 98.55962
3964.028, 98.58455
3964.51, 98.60438
3964.992, 98.62872
3965.474, 98.66533
3965.957, 98.71584
3966.439, 98.77318
3966.921, 98.82372
3967.403, 98.85178
3967.885, 98.84522
3968.367, 98.80124
3968.849, 98.72747
3969.332, 98.63937
3969.813, 98.55491
3970.296, 98.48784
3970.778, 98.44469
3971.26, 98.42399
3971.742, 98.41919
3972.224, 98.4231
3972.706, 98.4322
3973.188, 98.44683
3973.671, 98.46984
3974.153, 98.50288
3974.635, 98.54372
3975.117, 98.58506
3975.599, 98.61668
3976.081, 98.62939
3976.563, 98.61896
3977.045, 98.58787
3977.528, 98.54506
3978.01, 98.50203
3978.492, 98.46965
3978.974, 98.45428
3979.456, 98.45737
3979.938, 98.47511
3980.42, 98.50221
3980.902, 98.53318
3981.385, 98.56419
3981.867, 98.59332
3982.349, 98.62041
3982.831, 98.64632
3983.313, 98.67242
3983.795, 98.69996
3984.277, 98.7299
3984.76, 98.76206
3985.242, 98.79446
3985.724, 98.82233
3986.206, 98.83983
3986.688, 98.84074
3987.17, 98.82133
3987.652, 98.78209
3988.134, 98.7291
3988.616, 98.67214
3989.099, 98.62234
3989.581, 98.58844
3990.063, 98.57523
3990.545, 98.58205
3991.027, 98.60445
3991.509, 98.63602
3991.991, 98.67034
3992.473, 98.7023
3992.956, 98.72673
3993.438, 98.73787
3993.92, 98.72908
3994.402, 98.6935
3994.884, 98.62688
3995.366, 98.52997
3995.848, 98.41103
3996.33, 98.28428
3996.813, 98.16724
3997.295, 98.07569
3997.777, 98.01956
3998.259, 98.00051
3998.741, 98.01256
3999.223, 98.04479
3999.705, 98.08602
4000.188, 98.12768
$$ === CHEMSPECTRA INTEGRALS AND MULTIPLETS ===
##$OBSERVEDINTEGRALS= (X Y Z)
##$OBSERVEDMULTIPLETS=
##$OBSERVEDMULTIPLETSPEAKS=
$$ === CHEMSPECTRA SIMULATION ===
##$CSSIMULATIONPEAKS=
##END=


$$ === CHEMSPECTRA PEAK TABLE EDIT ===
##TITLE=compound 6-dioxetane (1)
##JCAMP-DX=5.00
##DATA TYPE=INFRAREDPEAKTABLE
##DATA CLASS=PEAKTABLE
##$CSCATEGORY=EDIT_PEAK
##$CSTHRESHOLD=0.93
##MAXX=4000.188
##MAXY=106.7082
##MINX=399.6813
##MINY=0.0
##$CSSOLVENTNAME=
##$CSSOLVENTVALUE=0
##$CSSOLVENTX=0
##NPOINTS=0
##PEAKTABLE= (XY..XY)
##END=


$$ === CHEMSPECTRA PEAK TABLE AUTO ===
##TITLE=compound 6-dioxetane (1)
##JCAMP-DX=5.00
##DATA TYPE=INFRAREDPEAKTABLE
##DATA CLASS=PEAKTABLE
##$CSCATEGORY=AUTO_PEAK
##$CSTHRESHOLD=0.93
##MAXX=4000.188
##MAXY=106.7082
##MINX=399.6813
##MINY=0.0
##NPOINTS=100
##PEAKTABLE= (XY..XY)
3036.42, 90.79376
594.4597, 90.77348
3020.028, 90.76096
636.8866, 90.60764
601.2094, 90.44646
454.1614, 90.39336
619.048, 90.37991
584.8171, 90.35038
3028.707, 90.22931
3098.615, 90.05341
464.7682, 90.05121
3095.722, 90.04787
3104.4, 90.02043
3088.972, 90.00414
3110.186, 89.84967
3079.33, 89.83588
3128.506, 89.68344
3115.971, 89.64422
3057.634, 89.58823
3120.31, 89.52696
3132.845, 89.41507
3069.205, 89.39497
3064.866, 89.34611
538.0511, 88.97633
3000.261, 88.78191
3141.524, 88.70193
668.7068, 88.33158
3146.827, 88.22846
3155.023, 87.97903
647.9755, 87.96376
1388.519, 87.85535
3159.362, 87.85204
682.6885, 87.28506
3538.312, 86.7668
675.9387, 86.2567
3179.612, 86.09324
523.1052, 86.00816
3187.808, 85.51743
3524.813, 84.72471
1664.776, 84.23821
3209.985, 83.98396
3221.074, 83.46115
1360.073, 83.1832
3235.056, 83.00085
1114.19, 82.80777
1485.426, 82.80746
3246.627, 82.19614
1699.007, 81.7123
1353.324, 81.50707
3259.644, 81.13809
3266.394, 80.81414
3277.483, 80.35379
1341.271, 80.34996
3275.072, 80.34909
692.813, 80.31681
3492.51, 80.1358
3284.232, 79.52414
833.1113, 78.64484
1041.871, 78.62392
3297.25, 78.52221
891.9305, 77.9077
3310.267, 77.74815
3317.981, 77.47151
1470.962, 76.69446
3328.106, 76.25388
3336.302, 76.11571
1254.488, 75.43301
3344.98, 74.89513
3357.033, 74.39681
3452.976, 74.04974
952.6782, 73.06122
3371.979, 72.89394
1154.688, 72.75668
903.9836, 72.65797
3382.586, 72.58672
3436.102, 72.49896
3426.459, 72.19254
3398.978, 71.85468
3390.782, 71.76373
3406.21, 71.65125
3411.031, 71.56967
1209.651, 70.36791
1226.043, 69.45241
1600.171, 67.89649
853.8427, 65.83368
869.2706, 65.80939
731.3831, 65.5609
789.7201, 63.29739
1589.565, 62.02673
998.48, 59.72605
1100.208, 58.97764
1093.941, 57.86037
712.098, 57.60142
1005.712, 57.04753
1173.009, 56.18674
1067.906, 49.09158
1291.612, 49.00152
2857.07, 47.48451
1451.195, 47.02205
2914.925, 30.99729
##END=

##END=

