Wavenumber,Intensity
4000.0,0.0
3994.7368421052633,85.0
3989.4736842105262,85.0
3984.2105263157896,85.0
3978.9473684210525,84.6875
3973.684210526316,84.0625
3968.4210526315787,83.75
3963.157894736842,83.75
3957.8947368421054,84.0625
3952.6315789473683,84.0625
3947.3684210526317,84.375
3942.1052631578946,84.6875
3936.842105263158,84.6875
3931.578947368421,84.6875
3926.315789473684,84.6875
3921.0526315789475,84.6875
3915.7894736842104,84.6875
3910.5263157894738,85.0
3905.2631578947367,85.0
3900.0,85.0
3894.7368421052633,85.0
3889.4736842105262,85.0
3884.2105263157896,85.0
3878.9473684210525,85.0
3873.684210526316,84.6875
3868.4210526315787,84.6875
3863.157894736842,85.0
3857.8947368421054,85.0
3852.6315789473683,85.3125
3847.3684210526317,85.3125
3842.1052631578946,85.625
3836.842105263158,85.625
3831.578947368421,85.625
3826.315789473684,85.625
3821.0526315789475,85.625
3815.7894736842104,85.625
3810.5263157894738,85.625
3805.2631578947367,85.625
3800.0,85.625
3794.7368421052633,85.625
3789.4736842105262,85.9375
3784.2105263157896,85.9375
3778.9473684210525,85.9375
3773.684210526316,85.9375
3768.4210526315787,85.9375
3763.157894736842,85.9375
3757.8947368421054,85.9375
3752.6315789473683,86.25
3747.3684210526317,86.25
3742.1052631578946,86.25
3736.842105263158,86.25
3731.578947368421,86.25
3726.315789473684,86.25
3721.0526315789475,86.5625
3715.7894736842104,86.5625
3710.5263157894738,86.5625
3705.2631578947367,86.5625
3700.0,86.5625
3694.7368421052633,86.5625
3689.4736842105262,86.5625
3684.2105263157896,86.5625
3678.9473684210525,86.25
3673.684210526316,86.25
3668.4210526315787,85.9375
3663.157894736842,85.9375
3657.8947368421054,85.625
3652.6315789473683,85.625
3647.3684210526317,85.3125
3642.1052631578946,84.6875
3636.842105263158,84.375
3631.578947368421,83.75
3626.315789473684,83.125
3621.0526315789475,82.5
3615.7894736842104,81.5625
3610.5263157894738,80.625
3605.2631578947367,80.0
3600.0,78.75
3594.7368421052633,77.5
3589.4736842105262,76.25
3584.2105263157896,74.6875
3578.9473684210525,73.125
3573.684210526316,71.25
3568.4210526315787,68.75
3563.157894736842,66.875
3557.894736842105,64.6875
3552.6315789473683,61.875
3547.3684210526317,59.375
3542.1052631578946,57.1875
3536.842105263158,54.375
3531.578947368421,51.875
3526.315789473684,49.375
3521.0526315789475,47.5
3515.7894736842104,44.99999999999999
3510.5263157894738,42.50000000000001
3505.2631578947367,40.0
3500.0,38.4375
3494.7368421052633,36.25000000000001
3489.4736842105262,34.0625
3484.2105263157896,32.1875
3478.9473684210525,30.9375
3473.684210526316,29.6875
3468.421052631579,29.0625
3463.157894736842,28.75
3457.894736842105,28.4375
3452.6315789473683,28.4375
3447.3684210526317,28.75
3442.1052631578946,28.75
3436.842105263158,28.75
3431.578947368421,29.0625
3426.315789473684,29.0625
3421.0526315789475,29.375
3415.7894736842104,30.0
3410.5263157894738,30.625
3405.2631578947367,31.875
3400.0,34.0625
3394.7368421052633,35.625
3389.4736842105262,37.81250000000001
3384.2105263157896,40.0
3378.9473684210525,42.8125
3373.684210526316,44.99999999999999
3368.421052631579,47.5
3363.157894736842,50.0
3357.894736842105,52.5
3352.6315789473683,54.6875
3347.3684210526317,56.25
3342.1052631578946,57.8125
3336.842105263158,59.375
3331.578947368421,60.9375
3326.315789473684,61.5625
3321.0526315789475,62.5
3315.7894736842104,63.125
3310.5263157894738,61.875
3305.2631578947367,60.0
3300.0,56.875
3294.7368421052633,50.625
3289.4736842105262,40.625
3284.210526315789,28.125
3278.9473684210525,21.25
3273.684210526316,19.375
3268.4210526315787,17.5
3263.157894736842,10.0
3257.894736842105,5.3125
3252.6315789473683,4.6875
3247.3684210526317,4.6875
3242.1052631578946,5.0
3236.842105263158,5.625
3231.578947368421,5.9375
3226.315789473684,6.5625
3221.0526315789475,11.875
3215.7894736842104,15.9375
3210.5263157894738,14.0625
3205.2631578947367,8.4375
3200.0,7.8125
3194.7368421052633,13.75
3189.4736842105262,26.25
3184.210526315789,35.9375
3178.9473684210525,42.50000000000001
3173.684210526316,50.0
3168.4210526315787,54.6875
3163.157894736842,57.8125
3157.894736842105,61.5625
3152.6315789473683,63.75
3147.3684210526317,66.25
3142.1052631578946,67.1875
3136.842105263158,68.125
3131.578947368421,68.4375
3126.315789473684,68.75
3121.0526315789475,68.75
3115.7894736842104,69.375
3110.5263157894738,69.375
3105.2631578947367,69.6875
3100.0,70.3125
3094.7368421052633,69.375
3089.4736842105262,68.75
3084.210526315789,68.125
3078.9473684210525,65.0
3073.684210526316,64.375
3068.4210526315787,66.25
3063.157894736842,67.5
3057.894736842105,69.375
3052.6315789473683,71.5625
3047.3684210526317,72.5
3042.1052631578946,73.4375
3036.842105263158,75.0
3031.578947368421,75.625
3026.315789473684,75.9375
3021.0526315789475,76.875
3015.7894736842104,77.8125
3010.5263157894738,78.75
3005.2631578947367,79.375
3000.0,80.625
2994.7368421052633,81.25
2989.4736842105262,81.875
2984.210526315789,82.1875
2978.9473684210525,82.1875
2973.684210526316,82.5
2968.421052631579,82.8125
2963.157894736842,83.125
2957.894736842105,83.4375
2952.6315789473683,83.4375
2947.3684210526317,83.4375
2942.1052631578946,83.75
2936.842105263158,84.0625
2931.578947368421,84.375
2926.315789473684,85.0
2921.0526315789475,85.0
2915.7894736842104,85.0
2910.5263157894733,84.6875
2905.2631578947367,84.6875
2900.0,84.6875
2894.7368421052633,85.0
2889.4736842105262,85.3125
2884.210526315789,85.9375
2878.9473684210525,86.5625
2873.684210526316,86.5625
2868.421052631579,86.5625
2863.157894736842,86.875
2857.894736842105,86.875
2852.6315789473683,86.875
2847.3684210526317,87.1875
2842.1052631578946,87.1875
2836.842105263158,87.5
2831.578947368421,87.8125
2826.315789473684,87.8125
2821.0526315789475,87.8125
2815.7894736842104,87.8125
2810.5263157894733,87.8125
2805.2631578947367,88.125
2800.0,88.125
2794.7368421052633,88.125
2789.4736842105262,87.5
2784.210526315789,88.4375
2778.9473684210525,88.4375
2773.684210526316,88.4375
2768.421052631579,88.4375
2763.157894736842,88.75
2757.894736842105,89.0625
2752.6315789473683,89.0625
2747.3684210526317,89.0625
2742.1052631578946,89.375
2736.842105263158,89.375
2731.578947368421,89.375
2726.315789473684,89.6875
2721.0526315789475,89.375
2715.7894736842104,89.375
2710.5263157894733,89.375
2705.2631578947367,89.375
2700.0,89.375
2694.7368421052633,89.375
2689.4736842105262,89.6875
2684.210526315789,89.6875
2678.9473684210525,90.0
2673.684210526316,90.0
2668.421052631579,90.0
2663.157894736842,90.0
2657.894736842105,90.0
2652.6315789473683,90.3125
2647.3684210526317,90.3125
2642.1052631578946,90.3125
2636.8421052631575,90.3125
2631.578947368421,90.3125
2626.315789473684,90.625
2621.0526315789475,90.625
2615.7894736842104,90.625
2610.5263157894733,90.625
2605.2631578947367,90.625
2600.0,90.625
2594.7368421052633,90.625
2589.4736842105262,90.625
2584.210526315789,90.9375
2578.9473684210525,90.9375
2573.684210526316,90.9375
2568.4210526315787,90.9375
2563.157894736842,90.9375
2557.894736842105,90.9375
2552.6315789473683,90.9375
2547.3684210526317,90.9375
2542.1052631578946,90.9375
2536.8421052631575,90.9375
2531.578947368421,90.9375
2526.315789473684,90.9375
2521.0526315789475,90.9375
2515.7894736842104,90.9375
2510.5263157894733,90.9375
2505.2631578947367,90.9375
2500.0,90.9375
2494.7368421052633,90.9375
2489.4736842105262,90.9375
2484.210526315789,90.9375
2478.9473684210525,90.9375
2473.684210526316,90.9375
2468.4210526315787,90.9375
2463.157894736842,90.9375
2457.894736842105,91.25
2452.6315789473683,91.25
2447.3684210526317,91.25
2442.1052631578946,91.5625
2436.8421052631575,91.5625
2431.578947368421,91.5625
2426.315789473684,91.5625
2421.0526315789475,91.5625
2415.7894736842104,91.5625
2410.5263157894733,91.5625
2405.2631578947367,91.5625
2400.0,91.5625
2394.7368421052633,91.5625
2389.4736842105262,91.5625
2384.210526315789,91.875
2378.9473684210525,91.875
2373.684210526316,91.875
2368.4210526315787,91.875
2363.157894736842,91.875
2357.894736842105,91.875
2352.6315789473683,91.5625
2347.3684210526317,91.5625
2342.1052631578946,91.5625
2336.8421052631575,91.5625
2331.578947368421,91.5625
2326.315789473684,91.5625
2321.0526315789475,91.5625
2315.7894736842104,91.5625
2310.5263157894733,91.5625
2305.2631578947367,91.5625
2300.0,91.5625
2294.7368421052633,91.5625
2289.4736842105262,91.5625
2284.210526315789,91.5625
2278.9473684210525,91.5625
2273.684210526316,91.5625
2268.4210526315787,91.5625
2263.157894736842,91.5625
2257.894736842105,91.25
2252.6315789473683,91.25
2247.3684210526317,91.25
2242.1052631578946,91.25
2236.8421052631575,91.25
2231.578947368421,91.25
2226.315789473684,90.9375
2221.0526315789475,90.9375
2215.7894736842104,90.9375
2210.5263157894733,90.9375
2205.2631578947367,90.9375
2200.0,90.9375
2194.7368421052633,90.9375
2189.4736842105262,90.9375
2184.210526315789,90.9375
2178.9473684210525,91.25
2173.684210526316,91.25
2168.4210526315787,91.25
2163.157894736842,91.25
2157.894736842105,91.25
2152.6315789473683,90.9375
2147.3684210526317,90.9375
2142.1052631578946,90.9375
2136.8421052631575,90.9375
2131.578947368421,90.9375
2126.315789473684,90.9375
2121.0526315789475,90.9375
2115.7894736842104,90.9375
2110.5263157894733,90.9375
2105.2631578947367,90.9375
2100.0,90.9375
2094.7368421052633,90.9375
2089.4736842105262,90.9375
2084.210526315789,90.9375
2078.9473684210525,90.9375
2073.684210526316,89.6875
2068.4210526315787,90.9375
2063.157894736842,90.9375
2057.894736842105,90.9375
2052.6315789473683,90.9375
2047.3684210526314,90.9375
2042.1052631578946,90.625
2036.8421052631577,90.625
2031.5789473684208,90.625
2026.3157894736842,90.3125
2021.0526315789473,90.3125
2015.7894736842104,90.0
2010.5263157894735,89.6875
2005.2631578947367,89.375
1999.9999999999998,89.375
1994.7368421052631,89.0625
1989.4736842105262,88.75
1984.2105263157894,88.125
1978.9473684210525,87.8125
1973.6842105263156,87.1875
1968.4210526315787,86.875
1963.1578947368419,86.5625
1957.8947368421052,85.9375
1952.6315789473683,85.3125
1947.3684210526312,84.6875
1942.1052631578946,84.0625
1936.842105263158,83.125
1931.5789473684208,81.875
1926.3157894736842,81.25
1921.052631578947,80.3125
1915.7894736842104,79.6875
1910.5263157894738,78.4375
1905.2631578947367,77.1875
1900.0,75.9375
1894.736842105263,74.6875
1889.4736842105262,71.875
1884.2105263157891,66.875
1878.9473684210525,58.4375
1873.6842105263158,42.1875
1868.4210526315787,39.0625
1863.157894736842,43.125
1857.894736842105,47.18750000000001
1852.6315789473683,44.375
1847.3684210526312,41.5625
1842.1052631578946,44.375
1836.842105263158,54.6875
1831.5789473684208,62.1875
1826.3157894736842,69.375
1821.052631578947,75.9375
1815.7894736842104,79.0625
1810.5263157894733,80.9375
1805.2631578947367,82.5
1800.0,83.4375
1794.736842105263,84.375
1789.4736842105262,84.6875
1784.2105263157891,84.375
1778.9473684210525,84.0625
1773.6842105263158,83.75
1768.4210526315787,82.1875
1763.157894736842,76.5625
1757.894736842105,67.5
1752.6315789473683,54.6875
1747.3684210526312,41.5625
1742.1052631578946,41.5625
1736.842105263158,60.3125
1731.5789473684208,58.125
1726.3157894736842,35.3125
1721.052631578947,38.4375
1715.7894736842104,45.9375
1710.5263157894733,60.9375
1705.2631578947367,75.0
1700.0,73.125
1694.736842105263,64.0625
1689.4736842105262,63.75
1684.2105263157891,70.0
1678.9473684210525,78.125
1673.6842105263158,78.75
1668.4210526315787,78.75
1663.157894736842,75.3125
1657.894736842105,71.25
1652.6315789473683,68.75
1647.3684210526312,66.875
1642.1052631578946,67.1875
1636.842105263158,75.9375
1631.5789473684208,72.5
1626.3157894736842,73.125
1621.052631578947,79.0625
1615.7894736842104,83.4375
1610.5263157894733,85.0
1605.2631578947367,85.0
1600.0,72.8125
1594.736842105263,72.5
1589.4736842105262,79.0625
1584.2105263157891,84.6875
1578.9473684210525,82.8125
1573.6842105263158,79.375
1568.4210526315787,80.0
1563.157894736842,80.3125
1557.894736842105,83.125
1552.6315789473683,85.3125
1547.3684210526312,86.875
1542.1052631578946,88.125
1536.842105263158,88.75
1531.5789473684208,88.125
1526.3157894736842,81.5625
1521.052631578947,80.3125
1515.7894736842104,80.3125
1510.5263157894733,86.25
1505.2631578947367,90.0
1500.0,90.625
1494.736842105263,91.25
1489.4736842105262,91.5625
1484.2105263157891,92.1875
1478.9473684210525,92.1875
1473.6842105263158,90.625
1468.4210526315787,83.4375
1463.157894736842,83.125
1457.894736842105,85.3125
1452.6315789473683,88.75
1447.3684210526312,89.375
1442.1052631578946,90.625
1436.842105263158,90.9375
1431.5789473684208,90.9375
1426.3157894736842,91.25
1421.052631578947,91.25
1415.7894736842104,91.25
1410.5263157894733,90.9375
1405.2631578947367,90.0
1400.0,89.375
1394.736842105263,87.5
1389.4736842105262,87.5
1384.2105263157891,87.5
1378.9473684210525,82.8125
1373.6842105263154,69.6875
1368.4210526315787,45.9375
1363.157894736842,46.875
1357.894736842105,68.75
1352.6315789473683,49.68749999999999
1347.3684210526312,45.62500000000001
1342.1052631578946,65.9375
1336.842105263158,80.9375
1331.5789473684208,85.0
1326.3157894736842,83.4375
1321.052631578947,78.4375
1315.7894736842104,60.3125
1310.5263157894733,30.625
1305.2631578947367,23.75
1300.0,36.25000000000001
1294.736842105263,64.0625
1289.4736842105262,78.4375
1284.2105263157891,80.0
1278.9473684210525,79.0625
1273.6842105263154,79.375
1268.4210526315787,64.0625
1263.157894736842,33.75
1257.894736842105,31.875
1252.6315789473683,37.5
1247.3684210526312,52.1875
1242.1052631578946,65.625
1236.842105263158,74.375
1231.5789473684208,80.625
1226.3157894736842,83.4375
1221.052631578947,85.625
1215.7894736842104,87.1875
1210.5263157894733,88.75
1205.2631578947367,88.4375
1200.0,78.75
1194.736842105263,70.9375
1189.4736842105262,83.75
1184.2105263157891,88.4375
1178.9473684210525,85.625
1173.6842105263154,65.0
1168.4210526315787,60.3125
1163.157894736842,78.4375
1157.894736842105,81.875
1152.6315789473683,78.4375
1147.3684210526312,74.0625
1142.1052631578946,50.9375
1136.8421052631575,54.375
1131.5789473684208,81.5625
1126.3157894736842,86.25
1121.052631578947,86.875
1115.7894736842104,89.0625
1110.5263157894733,89.0625
1105.2631578947367,89.0625
1100.0,89.375
1094.736842105263,87.8125
1089.4736842105262,87.8125
1084.2105263157891,83.75
1078.9473684210525,81.875
1073.6842105263154,86.25
1068.4210526315787,86.5625
1063.157894736842,85.625
1057.894736842105,83.75
1052.6315789473683,83.125
1047.3684210526312,83.75
1042.1052631578946,83.4375
1036.8421052631575,83.4375
1031.5789473684208,83.125
1026.3157894736842,83.125
1021.0526315789471,82.8125
1015.7894736842104,82.5
1010.5263157894733,82.1875
1005.2631578947367,82.1875
1000.0,81.875
994.7368421052629,81.25
989.4736842105262,80.9375
984.2105263157891,80.3125
978.9473684210525,79.375
973.6842105263154,73.4375
968.4210526315787,67.1875
963.1578947368421,72.8125
957.894736842105,79.0625
952.6315789473683,79.375
947.3684210526312,74.0625
942.1052631578946,75.9375
936.8421052631575,80.9375
931.5789473684208,80.9375
926.3157894736842,80.9375
921.0526315789471,80.9375
915.7894736842104,80.625
910.5263157894733,78.75
905.2631578947367,77.8125
900.0,75.625
894.7368421052629,81.5625
889.4736842105262,82.1875
884.2105263157891,82.1875
878.9473684210525,82.1875
873.6842105263154,82.1875
868.4210526315787,81.875
863.1578947368421,81.25
857.894736842105,80.9375
852.6315789473683,80.625
847.3684210526312,80.3125
842.1052631578946,80.3125
836.8421052631575,80.9375
831.5789473684208,82.1875
826.3157894736842,84.375
821.0526315789471,85.3125
815.7894736842104,85.9375
810.5263157894733,85.9375
805.2631578947367,85.9375
800.0,87.5
794.7368421052629,87.5
789.4736842105262,85.9375
784.2105263157891,70.9375
778.9473684210525,72.1875
773.6842105263154,85.625
768.4210526315787,88.75
763.1578947368421,88.75
757.894736842105,88.75
752.6315789473683,89.0625
747.3684210526312,89.0625
742.1052631578946,89.0625
736.8421052631575,89.0625
731.5789473684208,89.0625
726.3157894736842,89.0625
721.0526315789471,89.375
715.7894736842104,89.0625
710.5263157894733,89.6875
705.2631578947367,89.6875
699.9999999999995,90.0
694.7368421052629,90.0
689.4736842105262,90.3125
684.2105263157891,90.9375
678.9473684210525,91.25
673.6842105263154,91.25
668.4210526315787,91.25
663.1578947368421,91.25
657.894736842105,90.9375
652.6315789473683,90.9375
647.3684210526312,90.9375
642.1052631578946,90.9375
636.8421052631575,90.9375
631.5789473684208,91.5625
626.3157894736842,92.1875
621.0526315789471,92.8125
615.7894736842104,93.75
610.5263157894733,94.375
605.2631578947367,94.6875
599.9999999999995,93.4375
594.7368421052629,85.9375
589.4736842105262,74.6875
584.2105263157891,66.5625
578.9473684210525,70.9375
573.6842105263154,91.25
568.4210526315787,92.8125
563.1578947368421,92.8125
557.894736842105,93.125
552.6315789473683,93.125
547.3684210526312,92.8125
542.1052631578946,92.1875
536.8421052631575,92.1875
531.5789473684208,92.1875
526.3157894736842,91.875
521.0526315789471,91.875
515.7894736842104,91.25
510.5263157894733,90.9375
505.26315789473665,90.625
499.99999999999955,90.625
494.7368421052629,90.9375
489.47368421052624,91.25
484.21052631578914,91.875
478.9473684210525,92.5
473.6842105263154,92.8125
468.42105263157873,93.125
463.1578947368416,93.4375
457.894736842105,93.4375
452.6315789473683,93.4375
447.3684210526312,93.4375
442.10526315789457,92.8125
436.84210526315746,91.875
431.5789473684208,90.3125
426.31578947368416,87.5
421.05263157894706,85.3125
415.7894736842104,82.5
410.5263157894733,79.6875
405.26315789473665,77.8125
400.0,77.1875
