##TITLE=compound 3-phosphonate-OTBS
##JCAMP-DX=5.0
##DATA TYPE=LINK
##BLOCKS=1


$$ === CHEMSPECTRA SPECTRUM ORIG ===
##TITLE=compound 3-phosphonate-OTBS
##JCAMP-DX=5.00
##DATA TYPE=INFRARED SPECTRUM
##DATA CLASS=XYDATA
##$CSCATEGORY=SPECTRUM
##ORIGIN=
##OWNER=
##XUNITS=1/CM
##YUNITS=TRANSMITTANCE
##XFACTOR=1.0
##YFACTOR=1.0
##FIRSTX=399.6747
##LASTX=4000.123
##MAXX=4000.123
##MAXY=101.0864
##MINX=399.6747
##MINY=0.0
##NPOINTS=7469
##XYDATA= (XY..XY)
399.6747, 0.0
400.1569, 87.70157
400.639, 87.91352
401.1211, 88.07851
401.6032, 88.17305
402.0853, 88.1871
402.5674, 88.12687
403.0496, 88.0146
403.5317, 87.88412
404.0138, 87.77415
404.4959, 87.72037
404.978, 87.74769
405.4601, 87.86391
405.9423, 88.05669
406.4244, 88.29413
406.9065, 88.53139
407.3886, 88.72099
407.8707, 88.8261
408.3528, 88.83072
408.835, 88.74124
409.3171, 88.59217
409.7992, 88.43519
410.2813, 88.32605
410.7634, 88.28369
411.2455, 88.3091
411.7277, 88.43217
412.2098, 88.63501
412.6919, 88.88046
413.174, 89.12024
413.6561, 89.33675
414.1382, 89.51022
414.6204, 89.6133
415.1025, 89.65248
415.5846, 89.63995
416.0667, 89.59204
416.5488, 89.52424
417.0309, 89.44831
417.5131, 89.38667
417.9952, 89.33034
418.4773, 89.2843
418.9594, 89.22962
419.4415, 89.19268
419.9236, 89.1771
420.4058, 89.19658
420.8879, 89.27016
421.37, 89.41074
421.8521, 89.61336
422.3342, 89.86002
422.8163, 90.1245
423.2985, 90.38011
423.7806, 90.61859
424.2627, 90.79956
424.7448, 90.93138
425.2269, 91.0291
425.709, 91.09991
426.1912, 91.14117
426.6733, 91.19731
427.1554, 91.26564
427.6375, 91.34561
428.1196, 91.43727
428.6017, 91.54659
429.0839, 91.6779
429.566, 91.84324
430.0481, 92.00436
430.5302, 92.1973
431.0123, 92.41678
431.4944, 92.63837
431.9766, 92.83613
432.4587, 92.98304
432.9408, 93.06103
433.4229, 93.05044
433.905, 92.9631
434.3871, 92.81763
434.8693, 92.64443
435.3514, 92.47972
435.8335, 92.34489
436.3156, 92.24107
436.7977, 92.18092
437.2798, 92.16553
437.762, 92.14656
438.2441, 92.13005
438.7262, 92.11806
439.2083, 92.10261
439.6904, 92.09607
440.1725, 92.11281
440.6547, 92.14526
441.1368, 92.20224
441.6189, 92.26721
442.101, 92.36924
442.5831, 92.46651
443.0652, 92.54977
443.5474, 92.61187
444.0295, 92.64449
444.5116, 92.64883
444.9937, 92.58719
445.4758, 92.49614
445.9579, 92.34593
446.4401, 92.18322
446.9222, 92.00887
447.4043, 91.83624
447.8864, 91.66583
448.3685, 91.52468
448.8506, 91.42284
449.3328, 91.35364
449.8149, 91.3373
450.297, 91.34811
450.7791, 91.36906
451.2612, 91.43143
451.7433, 91.50893
452.2255, 91.59425
452.7076, 91.67957
453.1897, 91.76555
453.6718, 91.8256
454.1539, 91.86038
454.636, 91.87199
455.1182, 91.8691
455.6003, 91.86287
456.0824, 91.86628
456.5645, 91.88615
457.0466, 91.92327
457.5287, 91.96199
458.0109, 91.97187
458.493, 91.95733
458.9751, 91.86382
459.4572, 91.75645
459.9393, 91.58967
460.4214, 91.41308
460.9036, 91.24335
461.3857, 91.09882
461.8678, 90.97749
462.3499, 90.87927
462.832, 90.83308
463.3141, 90.82026
463.7963, 90.834
464.2784, 90.88325
464.7605, 90.95889
465.2426, 91.06817
465.7247, 91.18354
466.2068, 91.30825
466.689, 91.43271
467.1711, 91.54217
467.6532, 91.62495
468.1353, 91.67031
468.6174, 91.67043
469.0995, 91.62008
469.5817, 91.51956
470.0638, 91.37436
470.5459, 91.19192
471.028, 90.98207
471.5101, 90.79032
471.9922, 90.62165
472.4744, 90.49633
472.9565, 90.44018
473.4386, 90.42064
473.9207, 90.43044
474.4028, 90.44311
474.8849, 90.46421
475.3671, 90.4809
475.8492, 90.468
476.3313, 90.42767
476.8134, 90.3549
477.2955, 90.23219
477.7776, 90.09982
478.2598, 89.96312
478.7419, 89.82774
479.224, 89.70147
479.7061, 89.55451
480.1882, 89.39608
480.6703, 89.24335
481.1525, 89.0892
481.6346, 88.94421
482.1167, 88.8104
482.5988, 88.69772
483.0809, 88.61208
483.563, 88.57481
484.0452, 88.5899
484.5273, 88.65852
485.0094, 88.76498
485.4915, 88.87627
485.9736, 89.03025
486.4557, 89.17372
486.9379, 89.30975
487.42, 89.42319
487.9021, 89.52878
488.3842, 89.61932
488.8663, 89.68797
489.3484, 89.74297
489.8306, 89.80354
490.3127, 89.87221
490.7948, 89.94823
491.2769, 90.03333
491.759, 90.13198
492.2411, 90.24074
492.7233, 90.33038
493.2054, 90.4064
493.6875, 90.47112
494.1696, 90.53463
494.6517, 90.57053
495.1339, 90.58173
495.616, 90.58885
496.0981, 90.59044
496.5802, 90.58442
497.0623, 90.55434
497.5444, 90.52471
498.0266, 90.48569
498.5087, 90.4448
498.9908, 90.39064
499.4729, 90.31918
499.955, 90.25698
500.4371, 90.20908
500.9193, 90.17123
501.4014, 90.14693
501.8835, 90.12978
502.3656, 90.12209
502.8477, 90.11346
503.3299, 90.10728
503.812, 90.09655
504.2941, 90.07196
504.7762, 90.0455
505.2583, 90.01904
505.7404, 89.96416
506.2226, 89.92039
506.7047, 89.87607
507.1868, 89.81583
507.6689, 89.75218
508.151, 89.68653
508.6331, 89.61077
509.1153, 89.54459
509.5974, 89.51444
510.0795, 89.49496
510.5616, 89.5078
511.0437, 89.51883
511.5258, 89.53234
512.0079, 89.51682
512.4901, 89.45385
512.9722, 89.33778
513.4543, 89.17957
513.9364, 88.98784
514.4185, 88.78368
514.9006, 88.58828
515.3828, 88.41611
515.8649, 88.27218
516.347, 88.15083
516.8291, 88.06418
517.3112, 87.95699
517.7933, 87.85394
518.2755, 87.75314
518.7576, 87.61624
519.2397, 87.46626
519.7218, 87.30592
520.2039, 87.13474
520.686, 86.94984
521.1682, 86.7478
521.6503, 86.52768
522.1324, 86.29416
522.6145, 86.05255
523.0966, 85.82011
523.5787, 85.62419
524.0609, 85.44575
524.543, 85.30414
525.0251, 85.17595
525.5072, 85.0442
525.9893, 84.90736
526.4714, 84.74074
526.9536, 84.53581
527.4357, 84.283
527.9178, 84.01054
528.3999, 83.70908
528.8821, 83.39603
529.3641, 83.08311
529.8463, 82.78061
530.3284, 82.49657
530.8105, 82.23609
531.2926, 82.00101
531.7748, 81.78923
532.2568, 81.59496
532.739, 81.40917
533.2211, 81.22173
533.7032, 81.0237
534.1853, 80.80827
534.6675, 80.57211
535.1495, 80.31487
535.6317, 80.03699
536.1138, 79.73798
536.5959, 79.41532
537.078, 79.06577
537.5602, 78.68776
538.0422, 78.28339
538.5244, 77.85985
539.0065, 77.42584
539.4886, 77.0103
539.9707, 76.60271
540.4529, 76.21483
540.9349, 75.84216
541.4171, 75.46738
541.8992, 75.09993
542.3813, 74.71356
542.8634, 74.31361
543.3456, 73.90927
543.8276, 73.52321
544.3098, 73.15981
544.7919, 72.83951
545.274, 72.56763
545.7561, 72.35577
546.2383, 72.18817
546.7203, 72.07496
547.2025, 72.01357
547.6846, 72.0106
548.1667, 72.07584
548.6488, 72.21865
549.131, 72.44431
549.613, 72.7616
550.0952, 73.16921
550.5773, 73.66095
551.0594, 74.22741
551.5415, 74.85818
552.0237, 75.53781
552.5057, 76.25409
552.9879, 77.00913
553.47, 77.78296
553.9521, 78.57679
554.4342, 79.38566
554.9164, 80.2077
555.3984, 81.04331
555.8806, 81.88912
556.3627, 82.73274
556.8448, 83.56445
557.3269, 84.36788
557.8091, 85.12708
558.2911, 85.83078
558.7733, 86.47201
559.2554, 87.08378
559.7375, 87.63954
560.2196, 88.17015
560.7018, 88.68664
561.1838, 89.18974
561.666, 89.66571
562.1481, 90.13824
562.6302, 90.56963
563.1123, 90.95689
563.5945, 91.29784
564.0765, 91.59633
564.5587, 91.86018
565.0408, 92.09792
565.5229, 92.31586
566.005, 92.51655
566.4872, 92.69884
566.9692, 92.85925
567.4514, 92.99358
567.9335, 93.09838
568.4156, 93.18371
568.8977, 93.22489
569.3799, 93.23071
569.8619, 93.21832
570.3441, 93.18633
570.8262, 93.13767
571.3083, 93.08524
571.7904, 93.03885
572.2726, 93.00733
572.7546, 92.99079
573.2368, 93.0049
573.7189, 93.04441
574.201, 93.10777
574.6831, 93.1927
575.1653, 93.29704
575.6473, 93.41885
576.1295, 93.55612
576.6116, 93.70598
577.0938, 93.86429
577.5758, 94.0257
578.058, 94.18427
578.54, 94.33451
579.0222, 94.47241
579.5043, 94.59566
579.9865, 94.7037
580.4685, 94.79723
580.9507, 94.87748
581.4327, 94.946
581.9149, 95.00459
582.397, 95.05527
582.8792, 95.1004
583.3612, 95.14217
583.8434, 95.18182
584.3254, 95.21887
584.8076, 95.25066
585.2897, 95.27283
585.7719, 95.28047
586.2539, 95.26979
586.7361, 95.23985
587.2181, 95.18378
587.7003, 95.11641
588.1824, 95.0483
588.6646, 94.9883
589.1466, 94.94003
589.6288, 94.90083
590.1108, 94.86286
590.593, 94.81617
591.0751, 94.75248
591.5573, 94.66815
592.0393, 94.56504
592.5215, 94.44981
593.0035, 94.33109
593.4857, 94.21666
593.9678, 94.11095
594.45, 94.01423
594.932, 93.92294
595.4142, 93.83166
595.8962, 93.73486
596.3784, 93.6288
596.8605, 93.51257
597.3427, 93.388
597.8247, 93.2587
598.3069, 93.12907
598.7889, 93.00288
599.2711, 92.88239
599.7532, 92.76796
600.2354, 92.65842
600.7174, 92.55154
601.1996, 92.44492
601.6816, 92.33659
602.1638, 92.22536
602.6459, 92.1106
603.1281, 91.99165
603.6101, 91.8671
604.0923, 91.7345
604.5743, 91.59062
605.0565, 91.43245
605.5386, 91.25842
606.0208, 91.06935
606.5029, 90.86868
606.985, 90.66146
607.4671, 90.4527
607.9492, 90.24585
608.4313, 90.04189
608.9135, 89.83994
609.3956, 89.63908
609.8777, 89.44036
610.3598, 89.24854
610.8419, 89.07191
611.324, 88.9205
611.8062, 88.80303
612.2883, 88.72369
612.7704, 88.68008
613.2525, 88.6636
613.7346, 88.66194
614.2167, 88.66344
614.6989, 88.66145
615.181, 88.65735
615.6631, 88.66118
616.1452, 88.68954
616.6273, 88.76154
617.1094, 88.89363
617.5916, 89.09437
618.0737, 89.36114
618.5558, 89.68063
619.0379, 90.03307
619.52, 90.39834
620.0021, 90.76068
620.4843, 91.11023
620.9664, 91.44209
621.4485, 91.754
621.9306, 92.04384
622.4127, 92.30796
622.8948, 92.54085
623.377, 92.73627
623.8591, 92.88934
624.3412, 92.99851
624.8233, 93.06694
625.3054, 93.10233
625.7875, 93.1156
626.2697, 93.11875
626.7518, 93.12251
627.2339, 93.1347
627.716, 93.15948
628.1981, 93.19746
628.6802, 93.24668
629.1624, 93.30353
629.6445, 93.36378
630.1266, 93.42297
630.6087, 93.47662
631.0908, 93.52054
631.5729, 93.55108
632.0551, 93.56591
632.5372, 93.56467
633.0193, 93.54927
633.5014, 93.52354
633.9835, 93.49239
634.4656, 93.46062
634.9478, 93.43206
635.4299, 93.40935
635.912, 93.39438
636.3941, 93.38892
636.8762, 93.39503
637.3583, 93.41457
637.8405, 93.44837
638.3226, 93.49503
638.8047, 93.55054
639.2868, 93.60902
639.7689, 93.66459
640.251, 93.71334
640.7332, 93.75507
641.2153, 93.79331
641.6974, 93.83408
642.1795, 93.88364
642.6616, 93.94658
643.1437, 94.02486
643.6259, 94.11835
644.108, 94.22576
644.5901, 94.34571
645.0722, 94.47683
645.5543, 94.6167
646.0364, 94.76048
646.5186, 94.90039
647.0007, 95.02677
647.4828, 95.1308
647.9649, 95.20761
648.447, 95.2583
648.9291, 95.28902
649.4113, 95.30802
649.8934, 95.32171
650.3755, 95.33226
650.8576, 95.33729
651.3397, 95.33199
651.8218, 95.31213
652.304, 95.27684
652.7861, 95.22906
653.2682, 95.17415
653.7503, 95.11609
654.2324, 95.05472
654.7145, 94.98453
655.1967, 94.8961
655.6788, 94.77948
656.1609, 94.62768
656.643, 94.43817
657.1251, 94.21205
657.6072, 93.95134
658.0894, 93.65619
658.5715, 93.32394
659.0536, 92.95024
659.5357, 92.53181
660.0178, 92.06917
660.4999, 91.56761
660.9821, 91.03603
661.4642, 90.48473
661.9463, 89.92417
662.4284, 89.36603
662.9105, 88.82649
663.3926, 88.33025
663.8748, 87.91142
664.3569, 87.61002
664.839, 87.46261
665.3211, 87.4893
665.8032, 87.67937
666.2853, 87.97832
666.7675, 88.28448
667.2496, 88.47237
667.7317, 88.46367
668.2138, 88.31712
668.6959, 88.20827
669.178, 88.25999
669.6602, 88.46227
670.1423, 88.76012
670.6244, 89.11866
671.1065, 89.5181
671.5886, 89.93755
672.0707, 90.35162
672.5529, 90.73627
673.035, 91.07594
673.5171, 91.36686
673.9992, 91.61485
674.4813, 91.82896
674.9634, 92.01539
675.4456, 92.17448
675.9277, 92.30234
676.4098, 92.39455
676.8919, 92.44973
677.374, 92.47057
677.8561, 92.46214
678.3383, 92.4288
678.8204, 92.37212
679.3025, 92.29097
679.7846, 92.1839
680.2667, 92.05214
680.7488, 91.90117
681.231, 91.73994
681.7131, 91.57748
682.1952, 91.41875
682.6773, 91.26208
683.1594, 91.09904
683.6415, 90.91744
684.1237, 90.70528
684.6058, 90.45414
685.0879, 90.16041
685.57, 89.82331
686.0521, 89.44136
686.5342, 89.0088
687.0164, 88.5138
687.4985, 87.93893
687.9806, 87.26394
688.4627, 86.46922
688.9448, 85.5392
689.4269, 84.46456
689.9091, 83.24382
690.3912, 81.88464
690.8733, 80.40527
691.3554, 78.83588
691.8375, 77.21893
692.3196, 75.60735
692.8018, 74.06103
693.2839, 72.64082
693.766, 71.40215
694.2481, 70.38954
694.7302, 69.63287
695.2123, 69.14663
695.6945, 68.93124
696.1766, 68.97592
696.6587, 69.26167
697.1408, 69.76319
697.6229, 70.45011
698.105, 71.28735
698.5872, 72.23607
699.0693, 73.25575
699.5514, 74.30721
700.0335, 75.35609
700.5156, 76.37557
700.9977, 77.34736
701.4799, 78.26087
701.962, 79.11109
702.4441, 79.89625
702.9262, 80.61591
703.4083, 81.27006
703.8904, 81.85876
704.3726, 82.38235
704.8547, 82.84148
705.3368, 83.23714
705.8189, 83.57072
706.301, 83.8443
706.7831, 84.06107
707.2653, 84.22589
707.7474, 84.34513
708.2295, 84.42644
708.7116, 84.47774
709.1937, 84.50642
709.6758, 84.51883
710.158, 84.52037
710.6401, 84.51575
711.1222, 84.50924
711.6043, 84.50448
712.0864, 84.50372
712.5685, 84.5071
713.0507, 84.51221
713.5328, 84.51441
714.0149, 84.50819
714.497, 84.48848
714.9791, 84.45201
715.4612, 84.39761
715.9434, 84.32571
716.4255, 84.23743
716.9076, 84.13368
717.3897, 84.01526
717.8718, 83.88371
718.3539, 83.74278
718.8361, 83.5997
719.3182, 83.46464
719.8003, 83.34841
720.2824, 83.25842
720.7645, 83.19498
721.2466, 83.15057
721.7288, 83.11227
722.2109, 83.06603
722.693, 83.00063
723.1751, 82.90959
723.6572, 82.79106
724.1393, 82.64635
724.6215, 82.47855
725.1036, 82.29137
725.5857, 82.08912
726.0678, 81.87712
726.5499, 81.66196
727.032, 81.45102
727.5142, 81.25146
727.9963, 81.06827
728.4784, 80.9034
728.9605, 80.7555
729.4426, 80.62158
729.9247, 80.49895
730.4069, 80.38719
730.889, 80.28872
731.3711, 80.20763
731.8532, 80.14742
732.3353, 80.10888
732.8174, 80.08929
733.2996, 80.08335
733.7817, 80.08583
734.2638, 80.09424
734.7459, 80.11057
735.228, 80.14091
735.7101, 80.19321
736.1923, 80.27415
736.6744, 80.3866
737.1565, 80.52893
737.6386, 80.69624
738.1207, 80.883
738.6028, 81.08531
739.085, 81.30235
739.5671, 81.53547
740.0492, 81.78631
740.5313, 82.05434
741.0134, 82.33551
741.4955, 82.62224
741.9777, 82.90504
742.4598, 83.17448
742.9419, 83.42258
743.424, 83.64304
743.9061, 83.8301
744.3882, 83.9773
744.8704, 84.07654
745.3525, 84.11867
745.8346, 84.09527
746.3167, 84.00078
746.7988, 83.8344
747.2809, 83.60025
747.7631, 83.30616
748.2452, 82.96147
748.7273, 82.57452
749.2094, 82.1514
749.6915, 81.69559
750.1736, 81.20897
750.6558, 80.69323
751.1379, 80.15108
751.62, 79.58674
752.1021, 79.00556
752.5842, 78.41275
753.0663, 77.8119
753.5485, 77.20377
754.0306, 76.58566
754.5127, 75.95193
754.9948, 75.29486
755.4769, 74.60672
755.959, 73.88142
756.4412, 73.11636
756.9233, 72.31316
757.4054, 71.4777
757.8875, 70.61913
758.3696, 69.74885
758.8517, 68.87908
759.3339, 68.02252
759.816, 67.19238
760.2981, 66.3999
760.7802, 65.66478
761.2623, 65.00497
761.7444, 64.43756
762.2266, 63.97721
762.7087, 63.63444
763.1908, 63.4144
763.6729, 63.31594
764.155, 63.33068
764.6371, 63.44278
765.1193, 63.62932
765.6014, 63.86168
766.0835, 64.10817
766.5656, 64.33725
767.0477, 64.52081
767.5298, 64.63646
768.012, 64.66818
768.4941, 64.60524
768.9762, 64.43995
769.4583, 64.16499
769.9404, 63.772
770.4225, 63.25109
770.9047, 62.59261
771.3868, 61.78933
771.8689, 60.83914
772.351, 59.74694
772.8331, 58.52525
773.3152, 57.19379
773.7974, 55.77854
774.2795, 54.31042
774.7616, 52.8243
775.2437, 51.35781
775.7258, 49.94998
776.2079, 48.63931
776.6901, 47.46114
777.1722, 46.44505
777.6543, 45.61287
778.1364, 44.97754
778.6185, 44.54361
779.1006, 44.30875
779.5828, 44.26535
780.0649, 44.40204
780.547, 44.70439
781.0291, 45.15497
781.5112, 45.73376
781.9933, 46.41861
782.4755, 47.18689
782.9576, 48.01727
783.4397, 48.89154
783.9218, 49.79557
784.4039, 50.71912
784.886, 51.65458
785.3682, 52.59552
785.8503, 53.53518
786.3324, 54.46604
786.8145, 55.38017
787.2966, 56.27002
787.7787, 57.12955
788.2609, 57.95452
788.743, 58.74247
789.2251, 59.49212
789.7072, 60.20268
790.1893, 60.87343
790.6714, 61.50362
791.1536, 62.09287
791.6357, 62.64127
792.1178, 63.14975
792.5999, 63.61961
793.082, 64.05272
793.5641, 64.45105
794.0463, 64.81702
794.5284, 65.15387
795.0105, 65.46597
795.4926, 65.75902
795.9747, 66.03937
796.4568, 66.31297
796.939, 66.58433
797.4211, 66.85524
797.9032, 67.1245
798.3853, 67.38806
798.8674, 67.63976
799.3495, 67.87222
799.8317, 68.07746
800.3138, 68.24718
800.7959, 68.37267
801.278, 68.44481
801.7601, 68.45417
802.2422, 68.39162
802.7244, 68.24916
803.2065, 68.02082
803.6886, 67.70323
804.1707, 67.2955
804.6528, 66.79904
805.1349, 66.21649
805.6171, 65.55158
806.0992, 64.80878
806.5813, 63.99373
807.0634, 63.1138
807.5455, 62.17873
808.0276, 61.20073
808.5098, 60.19444
808.9919, 59.17625
809.474, 58.16352
809.9561, 57.17384
810.4382, 56.22429
810.9203, 55.33083
811.4025, 54.50792
811.8846, 53.76791
812.3667, 53.12086
812.8489, 52.57391
813.3309, 52.13118
813.8131, 51.79316
814.2952, 51.55647
814.7773, 51.41323
815.2594, 51.35069
815.7416, 51.35076
816.2236, 51.39047
816.7058, 51.44247
817.1879, 51.47688
817.67, 51.46317
818.1521, 51.37284
818.6343, 51.18201
819.1163, 50.87372
819.5985, 50.43976
820.0806, 49.88189
820.5627, 49.21196
821.0448, 48.45129
821.527, 47.62893
822.009, 46.77903
822.4912, 45.93744
822.9733, 45.1381
823.4554, 44.40969
823.9375, 43.77336
824.4197, 43.24141
824.9017, 42.81754
825.3839, 42.49789
825.866, 42.27275
826.3481, 42.12849
826.8302, 42.04948
827.3124, 42.01951
827.7944, 42.02348
828.2766, 42.04826
828.7587, 42.08365
829.2408, 42.12255
829.7229, 42.16093
830.2051, 42.19716
830.6871, 42.23099
831.1693, 42.2625
831.6514, 42.29152
832.1335, 42.31704
832.6156, 42.33791
833.0978, 42.35342
833.5798, 42.36444
834.062, 42.37437
834.5441, 42.38992
835.0262, 42.42105
835.5083, 42.48093
835.9905, 42.58491
836.4725, 42.74956
836.9547, 42.99117
837.4368, 43.32421
837.9189, 43.76005
838.401, 44.30603
838.8832, 44.96494
839.3652, 45.73542
839.8474, 46.61263
840.3295, 47.58928
840.8116, 48.65648
841.2937, 49.80416
841.7759, 51.02116
842.2579, 52.29525
842.7401, 53.61301
843.2222, 54.96045
843.7043, 56.32376
844.1864, 57.69064
844.6686, 59.05116
845.1506, 60.39834
845.6328, 61.72778
846.1149, 63.03656
846.597, 64.32153
847.0791, 65.57771
847.5613, 66.79695
848.0433, 67.96792
848.5255, 69.07647
849.0076, 70.10754
849.4897, 71.04684
849.9718, 71.88265
850.454, 72.60686
850.936, 73.21536
851.4182, 73.70731
851.9003, 74.08429
852.3824, 74.34896
852.8645, 74.5042
853.3467, 74.55231
853.8287, 74.49474
854.3109, 74.33183
854.793, 74.06306
855.2751, 73.68742
855.7572, 73.20397
856.2394, 72.61301
856.7214, 71.91711
857.2036, 71.12257
857.6857, 70.24002
858.1678, 69.28448
858.6499, 68.27486
859.1321, 67.23251
859.6141, 66.17978
860.0963, 65.13866
860.5784, 64.12976
861.0605, 63.17189
861.5426, 62.28185
862.0248, 61.47441
862.5068, 60.7623
862.989, 60.15599
863.4711, 59.66343
863.9532, 59.28964
864.4353, 59.03647
864.9175, 58.90284
865.3995, 58.88521
865.8817, 58.9785
866.3638, 59.17744
866.8459, 59.4775
867.328, 59.87548
867.8102, 60.36906
868.2922, 60.95596
868.7744, 61.63236
869.2565, 62.39183
869.7386, 63.2246
870.2207, 64.11801
870.7029, 65.0575
871.1849, 66.02806
871.6671, 67.01527
872.1492, 68.00582
872.6313, 68.98746
873.1134, 69.94853
873.5956, 70.87743
874.0776, 71.76274
874.5598, 72.59341
875.0419, 73.35951
875.524, 74.0527
876.0061, 74.66673
876.4883, 75.1975
876.9703, 75.64292
877.4525, 76.00298
877.9346, 76.27978
878.4167, 76.47765
878.8988, 76.60324
879.381, 76.66534
879.863, 76.67416
880.3452, 76.64028
880.8273, 76.57365
881.3094, 76.48268
881.7915, 76.37388
882.2737, 76.25216
882.7557, 76.12159
883.2379, 75.98598
883.72, 75.84952
884.2021, 75.71642
884.6842, 75.5905
885.1664, 75.47437
885.6484, 75.36897
886.1306, 75.27363
886.6127, 75.18683
887.0948, 75.10702
887.5769, 75.03355
888.0591, 74.96709
888.5411, 74.90928
889.0233, 74.86203
889.5054, 74.82678
889.9875, 74.80402
890.4696, 74.79336
890.9518, 74.794
891.4338, 74.80556
891.916, 74.82832
892.3981, 74.86353
892.8802, 74.91274
893.3623, 74.97741
893.8445, 75.05836
894.3265, 75.15587
894.8087, 75.27013
895.2908, 75.402
895.7729, 75.55372
896.255, 75.72917
896.7372, 75.93333
897.2192, 76.17174
897.7014, 76.44904
898.1835, 76.76842
898.6656, 77.13083
899.1477, 77.53506
899.6299, 77.97822
900.1119, 78.4565
900.5941, 78.96583
901.0762, 79.50268
901.5583, 80.06432
902.0404, 80.64875
902.5226, 81.25433
903.0046, 81.87914
903.4868, 82.51992
903.9689, 83.17159
904.451, 83.82682
904.9331, 84.47651
905.4153, 85.11074
905.8973, 85.72057
906.3795, 86.29945
906.8616, 86.84473
907.3438, 87.3578
907.8258, 87.84338
908.308, 88.30766
908.79, 88.75614
909.2722, 89.19143
909.7543, 89.61223
910.2365, 90.01327
910.7185, 90.38665
911.2007, 90.72406
911.6828, 91.0191
912.1649, 91.26929
912.647, 91.4767
913.1292, 91.64775
913.6113, 91.7916
914.0934, 91.91817
914.5755, 92.03615
915.0576, 92.15158
915.5397, 92.26714
916.0219, 92.38231
916.504, 92.49432
916.9861, 92.59925
917.4682, 92.693
917.9503, 92.77238
918.4324, 92.83545
918.9146, 92.88169
919.3967, 92.91195
919.8788, 92.92819
920.3609, 92.93329
920.843, 92.93041
921.3251, 92.92271
921.8073, 92.91251
922.2894, 92.90068
922.7715, 92.88612
923.2536, 92.86579
923.7357, 92.83485
924.2178, 92.78784
924.7, 92.7197
925.1821, 92.62702
925.6642, 92.50836
926.1463, 92.36434
926.6284, 92.19681
927.1105, 92.00768
927.5927, 91.79807
928.0748, 91.56749
928.5569, 91.31434
929.039, 91.03628
929.5211, 90.73098
930.0032, 90.39648
930.4854, 90.03091
930.9675, 89.63158
931.4496, 89.19382
931.9317, 88.71043
932.4138, 88.17159
932.8959, 87.5665
933.3781, 86.88514
933.8602, 86.12103
934.3423, 85.27348
934.8244, 84.34905
935.3065, 83.36175
935.7886, 82.33224
936.2708, 81.28608
936.7529, 80.25151
937.235, 79.25668
937.7171, 78.32719
938.1992, 77.48347
938.6813, 76.73875
939.1635, 76.09764
939.6456, 75.55597
940.1277, 75.10177
940.6098, 74.71762
941.0919, 74.38367
941.574, 74.08086
942.0562, 73.79383
942.5383, 73.5126
943.0204, 73.23329
943.5025, 72.9579
943.9846, 72.69301
944.4667, 72.44857
944.9489, 72.2361
945.431, 72.06714
945.9131, 71.95188
946.3952, 71.89796
946.8773, 71.90968
947.3594, 71.98804
947.8416, 72.13129
948.3237, 72.33577
948.8058, 72.59683
949.2879, 72.9095
949.77, 73.26833
950.2521, 73.66689
950.7343, 74.09694
951.2164, 74.54809
951.6985, 75.00818
952.1806, 75.46429
952.6627, 75.90444
953.1448, 76.31892
953.627, 76.70123
954.1091, 77.0479
954.5912, 77.35766
955.0733, 77.6303
955.5554, 77.86583
956.0375, 78.06409
956.5197, 78.2252
957.0018, 78.35011
957.4839, 78.44123
957.966, 78.50231
958.4481, 78.53787
958.9302, 78.55221
959.4124, 78.54867
959.8945, 78.52943
960.3766, 78.4957
960.8587, 78.44853
961.3408, 78.38938
961.8229, 78.3204
962.3051, 78.24416
962.7872, 78.16316
963.2693, 78.07934
963.7514, 77.99394
964.2335, 77.90776
964.7156, 77.82171
965.1978, 77.73695
965.6799, 77.65485
966.162, 77.57602
966.6441, 77.4994
967.1262, 77.42157
967.6083, 77.33663
968.0905, 77.23708
968.5726, 77.11481
969.0547, 76.96266
969.5368, 76.77489
970.0189, 76.54726
970.501, 76.27627
970.9832, 75.95815
971.4653, 75.58829
971.9474, 75.16085
972.4295, 74.66895
972.9116, 74.10495
973.3937, 73.46078
973.8759, 72.72794
974.358, 71.89746
974.8401, 70.96049
975.3222, 69.90945
975.8043, 68.73968
976.2864, 67.45155
976.7686, 66.05192
977.2507, 64.55488
977.7328, 62.98119
978.2149, 61.35713
978.697, 59.71309
979.1791, 58.0824
979.6613, 56.50073
980.1434, 55.00535
980.6255, 53.63423
981.1076, 52.42395
981.5897, 51.40701
982.0718, 50.60905
982.554, 50.0469
983.0361, 49.72829
983.5182, 49.65277
984.0003, 49.81408
984.4824, 50.20217
984.9645, 50.80463
985.4467, 51.60676
985.9288, 52.59115
986.4109, 53.73694
986.893, 55.02042
987.3751, 56.41597
987.8572, 57.89853
988.3394, 59.44531
988.8215, 61.03685
989.3036, 62.65646
989.7857, 64.28873
990.2678, 65.91747
990.7499, 67.52464
991.2321, 69.09015
991.7142, 70.59325
992.1963, 72.01419
992.6784, 73.33564
993.1605, 74.54301
993.6426, 75.62387
994.1248, 76.56674
994.6069, 77.36018
995.089, 77.99208
995.5711, 78.44878
996.0532, 78.71327
996.5353, 78.7616
997.0175, 78.55842
997.4996, 78.0538
997.9817, 77.18457
998.4638, 75.88331
998.9459, 74.09595
999.428, 71.80564
999.9102, 69.05661
1000.392, 65.97005
1000.874, 62.74399
1001.357, 59.63404
1001.839, 56.91619
1002.321, 54.84045
1002.803, 53.58562
1003.285, 53.22748
1003.767, 53.72754
1004.249, 54.94479
1004.731, 56.66655
1005.213, 58.65013
1005.696, 60.66421
1006.178, 62.52115
1006.66, 64.09407
1007.142, 65.31864
1007.624, 66.18313
1008.106, 66.71207
1008.588, 66.94953
1009.07, 66.94526
1009.552, 66.74543
1010.035, 66.38756
1010.517, 65.8988
1010.999, 65.29626
1011.481, 64.58848
1011.963, 63.77785
1012.445, 62.86349
1012.927, 61.84396
1013.409, 60.71974
1013.892, 59.49458
1014.374, 58.17573
1014.856, 56.77342
1015.338, 55.2998
1015.82, 53.76835
1016.302, 52.19298
1016.784, 50.58833
1017.266, 48.96937
1017.748, 47.35134
1018.231, 45.74913
1018.713, 44.17659
1019.195, 42.646
1019.677, 41.16769
1020.159, 39.75017
1020.641, 38.40051
1021.123, 37.12457
1021.605, 35.92715
1022.088, 34.8118
1022.57, 33.78068
1023.052, 32.83458
1023.534, 31.97333
1024.016, 31.19648
1024.498, 30.50413
1024.98, 29.89724
1025.462, 29.3776
1025.944, 28.94699
1026.427, 28.60622
1026.909, 28.35421
1027.391, 28.18771
1027.873, 28.10173
1028.355, 28.09052
1028.837, 28.14865
1029.319, 28.27183
1029.801, 28.45687
1030.283, 28.70129
1030.766, 29.00246
1031.248, 29.35695
1031.73, 29.76042
1032.212, 30.20799
1032.694, 30.69488
1033.176, 31.2171
1033.658, 31.77167
1034.14, 32.35637
1034.623, 32.96914
1035.105, 33.60764
1035.587, 34.2689
1036.069, 34.9496
1036.551, 35.64632
1037.033, 36.35602
1037.515, 37.07603
1037.997, 37.80376
1038.479, 38.53632
1038.962, 39.26989
1039.444, 39.99973
1039.926, 40.7203
1040.408, 41.42566
1040.89, 42.10992
1041.372, 42.76734
1041.854, 43.3923
1042.336, 43.97892
1042.819, 44.52116
1043.301, 45.01278
1043.783, 45.44813
1044.265, 45.82275
1044.747, 46.13393
1045.229, 46.38091
1045.711, 46.56477
1046.193, 46.68781
1046.676, 46.75314
1047.158, 46.76439
1047.64, 46.72582
1048.122, 46.64243
1048.604, 46.52028
1049.086, 46.36625
1049.568, 46.18758
1050.05, 45.99125
1050.532, 45.78355
1051.015, 45.56982
1051.497, 45.35506
1051.979, 45.14461
1052.461, 44.94503
1052.943, 44.76457
1053.425, 44.61302
1053.907, 44.50098
1054.389, 44.43874
1054.871, 44.43513
1055.354, 44.4968
1055.836, 44.62788
1056.318, 44.83023
1056.8, 45.10386
1057.282, 45.44757
1057.764, 45.85933
1058.246, 46.33643
1058.728, 46.87571
1059.21, 47.47371
1059.693, 48.1268
1060.175, 48.83152
1060.657, 49.58478
1061.139, 50.38394
1061.621, 51.22682
1062.103, 52.11118
1062.585, 53.03436
1063.067, 53.99266
1063.55, 54.98093
1064.032, 55.99231
1064.514, 57.01831
1064.996, 58.04939
1065.478, 59.07561
1065.96, 60.08785
1066.442, 61.0786
1066.924, 62.04271
1067.406, 62.97738
1067.889, 63.88142
1068.371, 64.75424
1068.853, 65.5944
1069.335, 66.39872
1069.817, 67.16195
1070.299, 67.87736
1070.781, 68.53815
1071.263, 69.13925
1071.746, 69.67902
1072.228, 70.16023
1072.71, 70.59061
1073.192, 70.98199
1073.674, 71.34901
1074.156, 71.70726
1074.638, 72.07149
1075.12, 72.45385
1075.603, 72.86282
1076.085, 73.30251
1076.567, 73.77283
1077.049, 74.26988
1077.531, 74.78709
1078.013, 75.31637
1078.495, 75.84937
1078.977, 76.37831
1079.459, 76.8967
1079.942, 77.39925
1080.424, 77.88155
1080.906, 78.33932
1081.388, 78.76771
1081.87, 79.16078
1082.352, 79.51125
1082.834, 79.81076
1083.316, 80.05078
1083.798, 80.22348
1084.281, 80.32298
1084.763, 80.34637
1085.245, 80.2942
1085.727, 80.17007
1086.209, 79.97994
1086.691, 79.73057
1087.173, 79.42802
1087.655, 79.07653
1088.137, 78.67809
1088.62, 78.23292
1089.102, 77.74028
1089.584, 77.20008
1090.066, 76.61385
1090.548, 75.98537
1091.03, 75.32061
1091.512, 74.62729
1091.994, 73.914
1092.477, 73.18984
1092.959, 72.46392
1093.441, 71.74564
1093.923, 71.04464
1094.405, 70.37098
1094.887, 69.73476
1095.369, 69.1457
1095.851, 68.61237
1096.333, 68.14165
1096.816, 67.7384
1097.298, 67.40565
1097.78, 67.14498
1098.262, 66.95711
1098.744, 66.84252
1099.226, 66.80152
1099.708, 66.8343
1100.19, 66.94063
1100.673, 67.11939
1101.155, 67.36834
1101.637, 67.68407
1102.119, 68.06214
1102.601, 68.49751
1103.083, 68.98521
1103.565, 69.52072
1104.047, 70.10049
1104.53, 70.72195
1105.012, 71.38325
1105.494, 72.08273
1105.976, 72.818
1106.458, 73.58535
1106.94, 74.37917
1107.422, 75.19199
1107.904, 76.01501
1108.386, 76.83902
1108.869, 77.65537
1109.351, 78.45665
1109.833, 79.23689
1110.315, 79.99143
1110.797, 80.71627
1111.279, 81.40798
1111.761, 82.06358
1112.243, 82.68101
1112.725, 83.25976
1113.208, 83.80136
1113.69, 84.30918
1114.172, 84.78799
1114.654, 85.24287
1115.136, 85.67838
1115.618, 86.09806
1116.1, 86.50446
1116.582, 86.89958
1117.064, 87.28529
1117.547, 87.66348
1118.029, 88.03558
1118.511, 88.40185
1118.993, 88.76067
1119.475, 89.10843
1119.957, 89.44005
1120.439, 89.75031
1120.921, 90.03525
1121.404, 90.29314
1121.886, 90.52475
1122.368, 90.73254
1122.85, 90.91955
1123.332, 91.0884
1123.814, 91.24079
1124.296, 91.37762
1124.778, 91.49995
1125.26, 91.60937
1125.743, 91.70835
1126.225, 91.79948
1126.707, 91.8844
1127.189, 91.96259
1127.671, 92.03107
1128.153, 92.08485
1128.635, 92.11858
1129.117, 92.12828
1129.6, 92.11301
1130.082, 92.07536
1130.564, 92.02092
1131.046, 91.95656
1131.528, 91.88847
1132.01, 91.82071
1132.492, 91.7544
1132.974, 91.68776
1133.457, 91.61712
1133.939, 91.53791
1134.421, 91.44564
1134.903, 91.33613
1135.385, 91.20581
1135.867, 91.05128
1136.349, 90.86921
1136.831, 90.65628
1137.313, 90.40951
1137.796, 90.12627
1138.278, 89.80492
1138.76, 89.44487
1139.242, 89.04666
1139.724, 88.61176
1140.206, 88.14231
1140.688, 87.64057
1141.17, 87.10856
1141.652, 86.5475
1142.135, 85.95792
1142.617, 85.33971
1143.099, 84.69305
1143.581, 84.0191
1144.063, 83.32126
1144.545, 82.60567
1145.027, 81.88135
1145.509, 81.15957
1145.991, 80.45256
1146.474, 79.77206
1146.956, 79.12795
1147.438, 78.52773
1147.92, 77.97626
1148.402, 77.47665
1148.884, 77.03093
1149.366, 76.64085
1149.848, 76.30827
1150.331, 76.03471
1150.813, 75.82127
1151.295, 75.66798
1151.777, 75.57381
1152.259, 75.53688
1152.741, 75.55502
1153.223, 75.62608
1153.705, 75.74811
1154.188, 75.91883
1154.67, 76.13504
1155.152, 76.39183
1155.634, 76.68208
1156.116, 76.9966
1156.598, 77.32455
1157.08, 77.65459
1157.562, 77.97587
1158.044, 78.27912
1158.527, 78.55727
1159.009, 78.80608
1159.491, 79.02421
1159.973, 79.2133
1160.455, 79.37775
1160.937, 79.5243
1161.419, 79.66132
1161.901, 79.7979
1162.384, 79.94274
1162.866, 80.1031
1163.348, 80.28403
1163.83, 80.48795
1164.312, 80.71462
1164.794, 80.96156
1165.276, 81.22462
1165.758, 81.49858
1166.24, 81.77757
1166.723, 82.05534
1167.205, 82.32542
1167.687, 82.58107
1168.169, 82.81537
1168.651, 83.02129
1169.133, 83.19199
1169.615, 83.32103
1170.097, 83.40279
1170.579, 83.43287
1171.062, 83.40843
1171.544, 83.32838
1172.026, 83.19344
1172.508, 83.00602
1172.99, 82.76994
1173.472, 82.48991
1173.954, 82.17129
1174.436, 81.81966
1174.918, 81.44076
1175.401, 81.0405
1175.883, 80.62503
1176.365, 80.20068
1176.847, 79.77397
1177.329, 79.35146
1177.811, 78.93935
1178.293, 78.54353
1178.775, 78.16922
1179.258, 77.82133
1179.74, 77.50455
1180.222, 77.22348
1180.704, 76.98281
1181.186, 76.78695
1181.668, 76.63992
1182.15, 76.54491
1182.632, 76.5041
1183.115, 76.51856
1183.597, 76.58832
1184.079, 76.71239
1184.561, 76.88878
1185.043, 77.1144
1185.525, 77.38512
1186.007, 77.69585
1186.489, 78.04082
1186.971, 78.41403
1187.454, 78.80991
1187.936, 79.22379
1188.418, 79.65208
1188.9, 80.09228
1189.382, 80.54259
1189.864, 81.0012
1190.346, 81.46576
1190.828, 81.93283
1191.311, 82.39784
1191.793, 82.85532
1192.275, 83.29963
1192.757, 83.7257
1193.239, 84.12971
1193.721, 84.50969
1194.203, 84.86507
1194.685, 85.19644
1195.167, 85.50471
1195.65, 85.79023
1196.132, 86.05257
1196.614, 86.29044
1197.096, 86.50237
1197.578, 86.68724
1198.06, 86.84512
1198.542, 86.97725
1199.024, 87.08595
1199.506, 87.17391
1199.989, 87.24339
1200.471, 87.29557
1200.953, 87.33026
1201.435, 87.34628
1201.917, 87.34186
1202.399, 87.31546
1202.881, 87.26636
1203.363, 87.19507
1203.845, 87.10323
1204.328, 86.99325
1204.81, 86.8679
1205.292, 86.72955
1205.774, 86.57992
1206.256, 86.41981
1206.738, 86.24915
1207.22, 86.06725
1207.702, 85.87331
1208.185, 85.66666
1208.667, 85.44711
1209.149, 85.21507
1209.631, 84.97158
1210.113, 84.71815
1210.595, 84.45664
1211.077, 84.18913
1211.559, 83.91806
1212.042, 83.64602
1212.524, 83.37595
1213.006, 83.11079
1213.488, 82.8533
1213.97, 82.60583
1214.452, 82.37016
1214.934, 82.1475
1215.416, 81.93878
1215.898, 81.745
1216.381, 81.56757
1216.863, 81.40829
1217.345, 81.269
1217.827, 81.15114
1218.309, 81.05508
1218.791, 80.9796
1219.273, 80.92224
1219.755, 80.87953
1220.238, 80.84791
1220.72, 80.82441
1221.202, 80.80728
1221.684, 80.79575
1222.166, 80.78947
1222.648, 80.78785
1223.13, 80.78923
1223.612, 80.79073
1224.094, 80.78851
1224.577, 80.77845
1225.059, 80.75695
1225.541, 80.72157
1226.023, 80.67107
1226.505, 80.60506
1226.987, 80.52351
1227.469, 80.42609
1227.951, 80.31193
1228.434, 80.1796
1228.916, 80.02735
1229.398, 79.85331
1229.88, 79.65559
1230.362, 79.43217
1230.844, 79.18059
1231.326, 78.8978
1231.808, 78.58018
1232.291, 78.22371
1232.773, 77.82433
1233.255, 77.37833
1233.737, 76.8824
1234.219, 76.33382
1234.701, 75.73026
1235.183, 75.0696
1235.665, 74.35014
1236.147, 73.57046
1236.63, 72.72967
1237.112, 71.8273
1237.594, 70.86318
1238.076, 69.83698
1238.558, 68.74799
1239.04, 67.59494
1239.522, 66.37617
1240.004, 65.09022
1240.486, 63.73645
1240.969, 62.31573
1241.451, 60.83096
1241.933, 59.28701
1242.415, 57.69068
1242.897, 56.05023
1243.379, 54.37502
1243.861, 52.67524
1244.343, 50.96166
1244.825, 49.24559
1245.308, 47.53904
1245.79, 45.85479
1246.272, 44.20669
1246.754, 42.60971
1247.236, 41.08022
1247.718, 39.63572
1248.2, 38.29445
1248.682, 37.07441
1249.165, 35.99226
1249.647, 35.06163
1250.129, 34.29171
1250.611, 33.6862
1251.093, 33.24271
1251.575, 32.95311
1252.057, 32.80448
1252.539, 32.78044
1253.021, 32.86269
1253.504, 33.0322
1253.986, 33.27018
1254.468, 33.55885
1254.95, 33.88215
1255.432, 34.22656
1255.914, 34.58213
1256.396, 34.94332
1256.878, 35.30945
1257.361, 35.68416
1257.843, 36.07426
1258.325, 36.48775
1258.807, 36.93189
1259.289, 37.41158
1259.771, 37.92867
1260.253, 38.4818
1260.735, 39.06706
1261.218, 39.67822
1261.7, 40.30699
1262.182, 40.94287
1262.664, 41.57285
1263.146, 42.18169
1263.628, 42.75285
1264.11, 43.26998
1264.592, 43.71893
1265.074, 44.08924
1265.557, 44.37486
1266.039, 44.57403
1266.521, 44.68829
1267.003, 44.72137
1267.485, 44.67852
1267.967, 44.56623
1268.449, 44.39271
1268.931, 44.16832
1269.413, 43.90589
1269.896, 43.62016
1270.378, 43.32698
1270.86, 43.04208
1271.342, 42.78009
1271.824, 42.55413
1272.306, 42.37575
1272.788, 42.25533
1273.27, 42.20236
1273.752, 42.22558
1274.235, 42.33252
1274.717, 42.52924
1275.199, 42.81973
1275.681, 43.206
1276.163, 43.68808
1276.645, 44.26431
1277.127, 44.93166
1277.609, 45.68563
1278.092, 46.52025
1278.574, 47.42803
1279.056, 48.40008
1279.538, 49.42672
1280.02, 50.49834
1280.502, 51.60614
1280.984, 52.74284
1281.466, 53.90271
1281.948, 55.08124
1282.431, 56.27459
1282.913, 57.47892
1283.395, 58.69019
1283.877, 59.90415
1284.359, 61.1167
1284.841, 62.32423
1285.323, 63.524
1285.805, 64.71382
1286.288, 65.89191
1286.77, 67.05636
1287.252, 68.20488
1287.734, 69.33472
1288.216, 70.44305
1288.698, 71.5273
1289.18, 72.58561
1289.662, 73.61696
1290.145, 74.62084
1290.627, 75.59676
1291.109, 76.54361
1291.591, 77.45911
1292.073, 78.34001
1292.555, 79.1825
1293.037, 79.98317
1293.519, 80.74003
1294.001, 81.45317
1294.484, 82.12471
1294.966, 82.75823
1295.448, 83.35751
1295.93, 83.92523
1296.412, 84.46232
1296.894, 84.96757
1297.376, 85.4384
1297.858, 85.87195
1298.34, 86.26626
1298.823, 86.62098
1299.305, 86.93744
1299.787, 87.21802
1300.269, 87.46501
1300.751, 87.67982
1301.233, 87.86236
1301.715, 88.01143
1302.197, 88.12555
1302.679, 88.20405
1303.162, 88.24805
1303.644, 88.26066
1304.126, 88.24692
1304.608, 88.21281
1305.09, 88.16448
1305.572, 88.1075
1306.054, 88.04674
1306.536, 87.98663
1307.019, 87.93166
1307.501, 87.88664
1307.983, 87.85681
1308.465, 87.84691
1308.947, 87.86029
1309.429, 87.89777
1309.911, 87.95702
1310.393, 88.03256
1310.875, 88.11664
1311.358, 88.20068
1311.84, 88.27672
1312.322, 88.33858
1312.804, 88.38271
1313.286, 88.40791
1313.768, 88.41485
1314.25, 88.40505
1314.732, 88.38041
1315.215, 88.34249
1315.697, 88.29273
1316.179, 88.23274
1316.661, 88.16467
1317.143, 88.09155
1317.625, 88.01753
1318.107, 87.94771
1318.589, 87.88789
1319.072, 87.8438
1319.554, 87.82059
1320.036, 87.82198
1320.518, 87.84983
1321.0, 87.90384
1321.482, 87.98159
1321.964, 88.07952
1322.446, 88.19366
1322.928, 88.32102
1323.411, 88.46021
1323.893, 88.61164
1324.375, 88.77721
1324.857, 88.95885
1325.339, 89.15733
1325.821, 89.37096
1326.303, 89.59527
1326.785, 89.82351
1327.267, 90.04817
1327.75, 90.26265
1328.232, 90.46313
1328.714, 90.64924
1329.196, 90.8239
1329.678, 90.99237
1330.16, 91.16035
1330.642, 91.33242
1331.124, 91.51095
1331.606, 91.69581
1332.089, 91.88484
1332.571, 92.07478
1333.053, 92.26234
1333.535, 92.44491
1334.017, 92.62088
1334.499, 92.7894
1334.981, 92.95023
1335.463, 93.10334
1335.946, 93.24884
1336.428, 93.38678
1336.91, 93.51756
1337.392, 93.64164
1337.874, 93.7597
1338.356, 93.87241
1338.838, 93.98032
1339.32, 94.08379
1339.802, 94.18288
1340.285, 94.27748
1340.767, 94.3673
1341.249, 94.45212
1341.731, 94.53177
1342.213, 94.60648
1342.695, 94.67672
1343.177, 94.74338
1343.659, 94.80749
1344.142, 94.87007
1344.624, 94.93154
1345.106, 94.99158
1345.588, 95.04875
1346.07, 95.10101
1346.552, 95.14622
1347.034, 95.18284
1347.516, 95.2106
1347.999, 95.23071
1348.481, 95.24548
1348.963, 95.2574
1349.445, 95.26846
1349.927, 95.27924
1350.409, 95.28905
1350.891, 95.29642
1351.373, 95.29995
1351.855, 95.29881
1352.338, 95.29308
1352.82, 95.28316
1353.302, 95.26828
1353.784, 95.24554
1354.266, 95.20872
1354.748, 95.14821
1355.23, 95.05145
1355.712, 94.90468
1356.194, 94.69447
1356.677, 94.4099
1357.159, 94.04424
1357.641, 93.59661
1358.123, 93.07346
1358.605, 92.48953
1359.087, 91.86854
1359.569, 91.24213
1360.051, 90.64831
1360.533, 90.12744
1361.016, 89.71788
1361.498, 89.451
1361.98, 89.34663
1362.462, 89.41058
1362.944, 89.63374
1363.426, 89.99368
1363.908, 90.45831
1364.39, 90.9905
1364.873, 91.55293
1365.355, 92.11234
1365.837, 92.64239
1366.319, 93.12517
1366.801, 93.55112
1367.283, 93.91808
1367.765, 94.22942
1368.247, 94.49181
1368.729, 94.71306
1369.212, 94.90036
1369.694, 95.0592
1370.176, 95.19333
1370.658, 95.30508
1371.14, 95.39623
1371.622, 95.46879
1372.104, 95.52518
1372.586, 95.56824
1373.069, 95.60067
1373.551, 95.62437
1374.033, 95.6403
1374.515, 95.64845
1374.997, 95.64834
1375.479, 95.63945
1375.961, 95.62172
1376.443, 95.59543
1376.926, 95.56126
1377.408, 95.51984
1377.89, 95.4718
1378.372, 95.41759
1378.854, 95.3578
1379.336, 95.29298
1379.818, 95.22366
1380.3, 95.1497
1380.782, 95.06999
1381.265, 94.98199
1381.747, 94.88184
1382.229, 94.76487
1382.711, 94.62621
1383.193, 94.46162
1383.675, 94.26753
1384.157, 94.04109
1384.639, 93.7795
1385.121, 93.47997
1385.604, 93.13992
1386.086, 92.75805
1386.568, 92.33624
1387.05, 91.88128
1387.532, 91.40614
1388.014, 90.92992
1388.496, 90.47663
1388.978, 90.07247
1389.46, 89.74247
1389.943, 89.50704
1390.425, 89.37927
1390.907, 89.36293
1391.389, 89.4521
1391.871, 89.632
1392.353, 89.88085
1392.835, 90.17275
1393.317, 90.48071
1393.8, 90.77966
1394.282, 91.04902
1394.764, 91.27458
1395.246, 91.4491
1395.728, 91.5721
1396.21, 91.64816
1396.692, 91.68539
1397.174, 91.69324
1397.656, 91.68121
1398.139, 91.65747
1398.621, 91.6288
1399.103, 91.59991
1399.585, 91.57391
1400.067, 91.55209
1400.549, 91.53441
1401.031, 91.51986
1401.513, 91.50687
1401.996, 91.49387
1402.478, 91.47958
1402.96, 91.46326
1403.442, 91.44469
1403.924, 91.42406
1404.406, 91.40182
1404.888, 91.37864
1405.37, 91.35551
1405.853, 91.33356
1406.335, 91.31453
1406.817, 91.30013
1407.299, 91.29199
1407.781, 91.29106
1408.263, 91.29736
1408.745, 91.30994
1409.227, 91.32709
1409.709, 91.34711
1410.192, 91.3687
1410.674, 91.39189
1411.156, 91.41771
1411.638, 91.44807
1412.12, 91.48518
1412.602, 91.53062
1413.084, 91.58495
1413.566, 91.64725
1414.048, 91.71522
1414.531, 91.78547
1415.013, 91.85403
1415.495, 91.9166
1415.977, 91.96906
1416.459, 92.00763
1416.941, 92.02912
1417.423, 92.03085
1417.905, 92.01119
1418.387, 91.96948
1418.87, 91.90624
1419.352, 91.82307
1419.834, 91.72237
1420.316, 91.60681
1420.798, 91.47886
1421.28, 91.33997
1421.762, 91.19042
1422.244, 91.0291
1422.727, 90.85381
1423.209, 90.66169
1423.691, 90.44986
1424.173, 90.21585
1424.655, 89.95792
1425.137, 89.67474
1425.619, 89.36505
1426.101, 89.02691
1426.583, 88.65714
1427.066, 88.25134
1427.548, 87.80411
1428.03, 87.30974
1428.512, 86.76305
1428.994, 86.15997
1429.476, 85.49825
1429.958, 84.77757
1430.44, 84.00015
1430.923, 83.17117
1431.405, 82.29936
1431.887, 81.39734
1432.369, 80.48139
1432.851, 79.57051
1433.333, 78.6849
1433.815, 77.84392
1434.297, 77.06467
1434.78, 76.36058
1435.262, 75.74045
1435.744, 75.20767
1436.226, 74.75992
1436.708, 74.38871
1437.19, 74.08022
1437.672, 73.81679
1438.154, 73.57934
1438.636, 73.35005
1439.119, 73.11501
1439.601, 72.86591
1440.083, 72.60095
1440.565, 72.32496
1441.047, 72.04833
1441.529, 71.78564
1442.011, 71.55364
1442.493, 71.36934
1442.976, 71.24815
1443.458, 71.20255
1443.94, 71.24093
1444.422, 71.36723
1444.904, 71.58096
1445.386, 71.87786
1445.868, 72.25101
1446.35, 72.69198
1446.833, 73.19174
1447.314, 73.74119
1447.797, 74.33107
1448.279, 74.95182
1448.761, 75.59323
1449.243, 76.24443
1449.725, 76.89407
1450.207, 77.53076
1450.689, 78.1432
1451.171, 78.72057
1451.654, 79.25292
1452.136, 79.73139
1452.618, 80.14871
1453.1, 80.49929
1453.582, 80.77909
1454.064, 80.98496
1454.546, 81.11413
1455.028, 81.16381
1455.51, 81.13129
1455.993, 81.01419
1456.475, 80.81128
1456.957, 80.52245
1457.439, 80.14861
1457.921, 79.69116
1458.403, 79.15205
1458.885, 78.53465
1459.367, 77.84573
1459.85, 77.09805
1460.332, 76.31223
1460.814, 75.51707
1461.296, 74.74759
1461.778, 74.04128
1462.26, 73.43302
1462.742, 72.95037
1463.224, 72.60961
1463.707, 72.41381
1464.189, 72.35205
1464.671, 72.40041
1465.153, 72.52439
1465.635, 72.68185
1466.117, 72.82664
1466.599, 72.91234
1467.081, 72.89579
1467.563, 72.74104
1468.046, 72.42316
1468.528, 71.93226
1469.01, 71.27689
1469.492, 70.48589
1469.974, 69.60806
1470.456, 68.70873
1470.938, 67.86372
1471.42, 67.15006
1471.903, 66.63525
1472.385, 66.36609
1472.867, 66.35963
1473.349, 66.59888
1473.831, 67.03446
1474.313, 67.59184
1474.795, 68.18266
1475.277, 68.71732
1475.76, 69.11678
1476.241, 69.32147
1476.724, 69.29708
1477.206, 69.03633
1477.688, 68.55719
1478.17, 67.89834
1478.652, 67.1129
1479.134, 66.26199
1479.616, 65.40884
1480.098, 64.61409
1480.581, 63.93158
1481.063, 63.40512
1481.545, 63.06606
1482.027, 62.93179
1482.509, 63.00624
1482.991, 63.28139
1483.473, 63.74027
1483.955, 64.36019
1484.438, 65.11592
1484.92, 65.98215
1485.402, 66.935
1485.884, 67.95296
1486.366, 69.01715
1486.848, 70.11157
1487.33, 71.22298
1487.812, 72.34077
1488.294, 73.45706
1488.777, 74.56613
1489.259, 75.66385
1489.741, 76.74717
1490.223, 77.8131
1490.705, 78.85831
1491.187, 79.87892
1491.669, 80.87039
1492.151, 81.82816
1492.634, 82.74791
1493.116, 83.62588
1493.598, 84.45905
1494.08, 85.24504
1494.562, 85.98207
1495.044, 86.66884
1495.526, 87.3047
1496.008, 87.88985
1496.49, 88.42561
1496.973, 88.91451
1497.455, 89.36025
1497.937, 89.76747
1498.419, 90.1413
1498.901, 90.48669
1499.383, 90.80798
1499.865, 91.10847
1500.347, 91.39011
1500.83, 91.6537
1501.312, 91.89934
1501.794, 92.12724
1502.276, 92.33851
1502.758, 92.53536
1503.24, 92.72128
1503.722, 92.90017
1504.204, 93.07508
1504.687, 93.24747
1505.168, 93.41599
1505.651, 93.57704
1506.133, 93.72559
1506.615, 93.85694
1507.097, 93.96844
1507.579, 94.06024
1508.061, 94.13541
1508.543, 94.19876
1509.025, 94.25535
1509.508, 94.30946
1509.99, 94.36401
1510.472, 94.42062
1510.954, 94.48013
1511.436, 94.54302
1511.918, 94.60976
1512.4, 94.68049
1512.882, 94.75497
1513.365, 94.83234
1513.847, 94.91093
1514.329, 94.98903
1514.811, 95.06489
1515.293, 95.13737
1515.775, 95.20597
1516.257, 95.27061
1516.739, 95.33141
1517.221, 95.38836
1517.704, 95.44163
1518.186, 95.49133
1518.668, 95.53799
1519.15, 95.58241
1519.632, 95.62556
1520.114, 95.6681
1520.596, 95.71024
1521.078, 95.75169
1521.561, 95.7921
1522.043, 95.8315
1522.525, 95.87078
1523.007, 95.91151
1523.489, 95.95538
1523.971, 96.00339
1524.453, 96.0552
1524.935, 96.10897
1525.417, 96.16187
1525.9, 96.21112
1526.382, 96.25485
1526.864, 96.29282
1527.346, 96.32598
1527.828, 96.35587
1528.31, 96.38337
1528.792, 96.40826
1529.274, 96.42937
1529.757, 96.44537
1530.239, 96.4558
1530.721, 96.46191
1531.203, 96.46659
1531.685, 96.47356
1532.167, 96.48586
1532.649, 96.50497
1533.131, 96.53009
1533.614, 96.55867
1534.095, 96.58745
1534.578, 96.61368
1535.06, 96.63608
1535.542, 96.65482
1536.024, 96.67113
1536.506, 96.68645
1536.988, 96.70181
1537.47, 96.71771
1537.952, 96.73428
1538.435, 96.75143
1538.917, 96.76885
1539.399, 96.78586
1539.881, 96.80112
1540.363, 96.81256
1540.845, 96.81789
1541.327, 96.81542
1541.809, 96.80518
1542.292, 96.78943
1542.774, 96.7723
1543.256, 96.75869
1543.738, 96.75274
1544.22, 96.75621
1544.702, 96.76791
1545.184, 96.78383
1545.666, 96.79858
1546.148, 96.80682
1546.631, 96.8048
1547.113, 96.79106
1547.595, 96.76633
1548.077, 96.73281
1548.559, 96.69344
1549.041, 96.65129
1549.523, 96.60925
1550.005, 96.56976
1550.488, 96.53467
1550.97, 96.50477
1551.452, 96.47962
1551.934, 96.45744
1552.416, 96.4357
1552.898, 96.41196
1553.38, 96.3851
1553.862, 96.35606
1554.344, 96.32769
1554.827, 96.30377
1555.309, 96.28733
1555.791, 96.27901
1556.273, 96.27644
1556.755, 96.27434
1557.237, 96.2662
1557.719, 96.24619
1558.201, 96.21088
1558.684, 96.16029
1559.166, 96.0973
1559.648, 96.02618
1560.13, 95.95049
1560.612, 95.87164
1561.094, 95.78851
1561.576, 95.69827
1562.058, 95.59814
1562.541, 95.4864
1563.022, 95.36346
1563.505, 95.23155
1563.987, 95.09412
1564.469, 94.95439
1564.951, 94.81433
1565.433, 94.6739
1565.915, 94.53096
1566.397, 94.38191
1566.879, 94.22282
1567.362, 94.05027
1567.844, 93.86247
1568.326, 93.65944
1568.808, 93.44315
1569.29, 93.21684
1569.772, 92.98412
1570.254, 92.74779
1570.736, 92.50908
1571.219, 92.26723
1571.701, 92.01973
1572.183, 91.76291
1572.665, 91.49252
1573.147, 91.20421
1573.629, 90.89378
1574.111, 90.55698
1574.593, 90.18905
1575.075, 89.78506
1575.558, 89.33969
1576.04, 88.84799
1576.522, 88.3056
1577.004, 87.70884
1577.486, 87.05437
1577.968, 86.33875
1578.45, 85.55814
1578.932, 84.70873
1579.415, 83.78783
1579.897, 82.79511
1580.379, 81.73425
1580.861, 80.61347
1581.343, 79.44555
1581.825, 78.24725
1582.307, 77.03846
1582.789, 75.84191
1583.271, 74.6833
1583.754, 73.59165
1584.236, 72.59888
1584.718, 71.73837
1585.2, 71.04185
1585.682, 70.536
1586.164, 70.23879
1586.646, 70.15726
1587.128, 70.28667
1587.611, 70.61128
1588.093, 71.10627
1588.575, 71.74003
1589.057, 72.47687
1589.539, 73.27901
1590.021, 74.10818
1590.503, 74.92648
1590.985, 75.69673
1591.468, 76.38325
1591.949, 76.95249
1592.432, 77.37457
1592.914, 77.62491
1593.396, 77.68594
1593.878, 77.54785
1594.36, 77.20892
1594.842, 76.67523
1595.324, 75.96007
1595.806, 75.08398
1596.289, 74.0747
1596.771, 72.96749
1597.253, 71.80492
1597.735, 70.63605
1598.217, 69.51434
1598.699, 68.49523
1599.181, 67.63268
1599.663, 66.97568
1600.146, 66.56499
1600.628, 66.43047
1601.11, 66.58939
1601.592, 67.0459
1602.074, 67.7914
1602.556, 68.80582
1603.038, 70.05869
1603.52, 71.5113
1604.002, 73.1185
1604.485, 74.83167
1604.967, 76.6017
1605.449, 78.38218
1605.931, 80.13203
1606.413, 81.81703
1606.895, 83.41049
1607.377, 84.89279
1607.859, 86.25095
1608.342, 87.4781
1608.824, 88.5729
1609.306, 89.53912
1609.788, 90.38473
1610.27, 91.12088
1610.752, 91.7605
1611.234, 92.31697
1611.716, 92.80303
1612.198, 93.23019
1612.681, 93.60844
1613.163, 93.94604
1613.645, 94.24981
1614.127, 94.52516
1614.609, 94.7761
1615.091, 95.00529
1615.573, 95.21437
1616.055, 95.40403
1616.538, 95.57442
1617.02, 95.7257
1617.502, 95.85817
1617.984, 95.9728
1618.466, 96.07136
1618.948, 96.15627
1619.43, 96.2308
1619.912, 96.29893
1620.395, 96.36478
1620.876, 96.43237
1621.359, 96.50485
1621.841, 96.58385
1622.323, 96.66902
1622.805, 96.75816
1623.287, 96.84743
1623.769, 96.93231
1624.251, 97.00883
1624.733, 97.0743
1625.216, 97.12808
1625.698, 97.17151
1626.18, 97.20756
1626.662, 97.23965
1627.144, 97.27122
1627.626, 97.30435
1628.108, 97.33942
1628.59, 97.37528
1629.073, 97.40926
1629.555, 97.43818
1630.037, 97.45932
1630.519, 97.47115
1631.001, 97.47381
1631.483, 97.46931
1631.965, 97.46078
1632.447, 97.45191
1632.929, 97.44602
1633.412, 97.44521
1633.894, 97.45019
1634.376, 97.45983
1634.858, 97.47197
1635.34, 97.48395
1635.822, 97.49335
1636.304, 97.49883
1636.786, 97.50054
1637.269, 97.49978
1637.751, 97.49883
1638.233, 97.4999
1638.715, 97.50483
1639.197, 97.51438
1639.679, 97.52832
1640.161, 97.54563
1640.643, 97.56503
1641.125, 97.58553
1641.608, 97.60673
1642.09, 97.62863
1642.572, 97.65145
1643.054, 97.67482
1643.536, 97.69762
1644.018, 97.71812
1644.5, 97.73452
1644.982, 97.7457
1645.465, 97.75204
1645.947, 97.75556
1646.429, 97.75928
1646.911, 97.76624
1647.393, 97.77793
1647.875, 97.79401
1648.357, 97.81204
1648.839, 97.82877
1649.322, 97.84147
1649.803, 97.84912
1650.286, 97.8528
1650.768, 97.85521
1651.25, 97.85936
1651.732, 97.86722
1652.214, 97.87867
1652.696, 97.89163
1653.178, 97.90302
1653.66, 97.91026
1654.143, 97.91275
1654.625, 97.91221
1655.107, 97.91174
1655.589, 97.9146
1656.071, 97.92265
1656.553, 97.93552
1657.035, 97.95097
1657.517, 97.96568
1658.0, 97.97641
1658.482, 97.98138
1658.964, 97.98061
1659.446, 97.97617
1659.928, 97.97138
1660.41, 97.96986
1660.892, 97.97482
1661.374, 97.9883
1661.856, 98.01043
1662.339, 98.03929
1662.821, 98.07102
1663.303, 98.10011
1663.785, 98.12093
1664.267, 98.12896
1664.749, 98.12273
1665.231, 98.10439
1665.713, 98.07972
1666.196, 98.05643
1666.678, 98.04204
1667.16, 98.04112
1667.642, 98.05421
1668.124, 98.07751
1668.606, 98.10446
1669.088, 98.12849
1669.57, 98.1453
1670.052, 98.15457
1670.535, 98.15936
1671.017, 98.16432
1671.499, 98.17294
1671.981, 98.18591
1672.463, 98.20043
1672.945, 98.21133
1673.427, 98.21297
1673.909, 98.20163
1674.392, 98.17682
1674.874, 98.14137
1675.356, 98.10102
1675.838, 98.0621
1676.32, 98.03052
1676.802, 98.01026
1677.284, 98.00327
1677.766, 98.00934
1678.249, 98.02671
1678.73, 98.05199
1679.213, 98.08073
1679.695, 98.10819
1680.177, 98.13029
1680.659, 98.14446
1681.141, 98.15072
1681.623, 98.15165
1682.105, 98.15125
1682.587, 98.1533
1683.07, 98.1599
1683.552, 98.17029
1684.034, 98.18157
1684.516, 98.18991
1684.998, 98.19318
1685.48, 98.19173
1685.962, 98.18914
1686.444, 98.18994
1686.927, 98.19756
1687.409, 98.2121
1687.891, 98.23
1688.373, 98.24487
1688.855, 98.25034
1689.337, 98.24289
1689.819, 98.22408
1690.301, 98.20052
1690.783, 98.18212
1691.266, 98.17874
1691.748, 98.19679
1692.23, 98.237
1692.712, 98.29441
1693.194, 98.35953
1693.676, 98.42121
1694.158, 98.46912
1694.64, 98.49618
1695.123, 98.49976
1695.605, 98.48215
1696.087, 98.4493
1696.569, 98.41011
1697.051, 98.37404
1697.533, 98.34961
1698.015, 98.34304
1698.497, 98.35708
1698.979, 98.39108
1699.462, 98.44073
1699.944, 98.49919
1700.426, 98.55812
1700.908, 98.61024
1701.39, 98.65046
1701.872, 98.67715
1702.354, 98.69137
1702.836, 98.69613
1703.319, 98.69495
1703.801, 98.6907
1704.283, 98.68544
1704.765, 98.68021
1705.247, 98.67563
1705.729, 98.67209
1706.211, 98.67004
1706.693, 98.67007
1707.176, 98.67295
1707.657, 98.67957
1708.14, 98.69081
1708.622, 98.70735
1709.104, 98.72923
1709.586, 98.75533
1710.068, 98.78282
1710.55, 98.80762
1711.032, 98.82453
1711.514, 98.82872
1711.997, 98.81738
1712.479, 98.79064
1712.961, 98.75202
1713.443, 98.70786
1713.925, 98.66549
1714.407, 98.63145
1714.889, 98.60937
1715.371, 98.59952
1715.854, 98.59876
1716.336, 98.60165
1716.818, 98.60229
1717.3, 98.59579
1717.782, 98.57971
1718.264, 98.55438
1718.746, 98.52286
1719.229, 98.48988
1719.71, 98.46117
1720.193, 98.44176
1720.675, 98.43516
1721.157, 98.44213
1721.639, 98.46071
1722.121, 98.48593
1722.603, 98.51123
1723.085, 98.52973
1723.567, 98.53623
1724.05, 98.52841
1724.532, 98.50758
1725.014, 98.47783
1725.496, 98.44506
1725.978, 98.41538
1726.46, 98.39392
1726.942, 98.38434
1727.424, 98.38892
1727.906, 98.40871
1728.389, 98.44386
1728.871, 98.49329
1729.353, 98.55444
1729.835, 98.6227
1730.317, 98.69194
1730.799, 98.75539
1731.281, 98.80688
1731.763, 98.84246
1732.246, 98.86105
1732.728, 98.8643
1733.21, 98.85582
1733.692, 98.83989
1734.174, 98.82037
1734.656, 98.80019
1735.138, 98.78171
1735.62, 98.76727
1736.103, 98.75966
1736.585, 98.76166
1737.067, 98.77574
1737.549, 98.80253
1738.031, 98.84046
1738.513, 98.88586
1738.995, 98.9336
1739.477, 98.97923
1739.959, 99.02006
1740.442, 99.05574
1740.924, 99.08789
1741.406, 99.11818
1741.888, 99.14683
1742.37, 99.17153
1742.852, 99.18797
1743.334, 99.19108
1743.816, 99.17761
1744.299, 99.14789
1744.781, 99.10686
1745.263, 99.06322
1745.745, 99.02749
1746.227, 99.00938
1746.709, 99.01491
1747.191, 99.04482
1747.673, 99.09406
1748.156, 99.15244
1748.637, 99.20691
1749.12, 99.24437
1749.602, 99.25433
1750.084, 99.23125
1750.566, 99.17589
1751.048, 99.095
1751.53, 98.99963
1752.012, 98.90217
1752.494, 98.81351
1752.977, 98.74051
1753.459, 98.68495
1753.941, 98.64436
1754.423, 98.61331
1754.905, 98.58572
1755.387, 98.55675
1755.869, 98.52322
1756.351, 98.48441
1756.833, 98.44135
1757.316, 98.39648
1757.798, 98.35321
1758.28, 98.31587
1758.762, 98.28947
1759.244, 98.27853
1759.726, 98.28604
1760.208, 98.31209
1760.69, 98.35263
1761.173, 98.39954
1761.655, 98.44257
1762.137, 98.47195
1762.619, 98.48138
1763.101, 98.46999
1763.583, 98.4422
1764.065, 98.40573
1764.547, 98.36861
1765.03, 98.3362
1765.512, 98.30994
1765.994, 98.2877
1766.476, 98.26575
1766.958, 98.24124
1767.44, 98.21381
1767.922, 98.18575
1768.404, 98.16054
1768.886, 98.14101
1769.369, 98.12762
1769.851, 98.11816
1770.333, 98.10895
1770.815, 98.09678
1771.297, 98.0805
1771.779, 98.06159
1772.261, 98.04332
1772.743, 98.02894
1773.226, 98.01987
1773.708, 98.01495
1774.19, 98.01115
1774.672, 98.00539
1775.154, 97.99604
1775.636, 97.98408
1776.118, 97.97266
1776.6, 97.96561
1777.083, 97.96548
1777.564, 97.97251
1778.047, 97.98431
1778.529, 97.99706
1779.011, 98.00716
1779.493, 98.01268
1779.975, 98.01392
1780.457, 98.0127
1780.939, 98.01123
1781.421, 98.01114
1781.904, 98.01262
1782.386, 98.01473
1782.868, 98.0158
1783.35, 98.01419
1783.832, 98.00807
1784.314, 97.99556
1784.796, 97.97441
1785.278, 97.94253
1785.76, 97.89877
1786.243, 97.84446
1786.725, 97.78423
1787.207, 97.72591
1787.689, 97.67942
1788.171, 97.65401
1788.653, 97.65588
1789.135, 97.68637
1789.617, 97.74152
1790.1, 97.81341
1790.582, 97.89242
1791.064, 97.96946
1791.546, 98.03751
1792.028, 98.09185
1792.51, 98.12965
1792.992, 98.14907
1793.474, 98.14935
1793.957, 98.13129
1794.439, 98.09839
1794.921, 98.0573
1795.403, 98.01718
1795.885, 97.98771
1796.367, 97.97611
1796.849, 97.98447
1797.331, 98.00874
1797.813, 98.03942
1798.296, 98.06501
1798.778, 98.07574
1799.26, 98.06707
1799.742, 98.04137
1800.224, 98.00668
1800.706, 97.97398
1801.188, 97.95313
1801.67, 97.95022
1802.153, 97.9661
1802.635, 97.99717
1803.117, 98.03735
1803.599, 98.08064
1804.081, 98.12216
1804.563, 98.15928
1805.045, 98.19098
1805.527, 98.2174
1806.01, 98.23933
1806.491, 98.25822
1806.974, 98.27652
1807.456, 98.29756
1807.938, 98.3249
1808.42, 98.36099
1808.902, 98.40589
1809.384, 98.45618
1809.866, 98.5052
1810.348, 98.54433
1810.831, 98.5656
1811.313, 98.56386
1811.795, 98.53849
1812.277, 98.494
1812.759, 98.43838
1813.241, 98.38147
1813.723, 98.33219
1814.205, 98.29724
1814.688, 98.27984
1815.17, 98.28043
1815.652, 98.29726
1816.134, 98.32722
1816.616, 98.36703
1817.098, 98.41338
1817.58, 98.46306
1818.062, 98.51298
1818.544, 98.56003
1819.027, 98.60085
1819.509, 98.63181
1819.991, 98.64907
1820.473, 98.64896
1820.955, 98.62834
1821.437, 98.58544
1821.919, 98.52059
1822.401, 98.43669
1822.884, 98.33952
1823.366, 98.23681
1823.848, 98.13792
1824.33, 98.05193
1824.812, 97.98672
1825.294, 97.94754
1825.776, 97.93658
1826.258, 97.95224
1826.74, 97.98962
1827.223, 98.04008
1827.705, 98.09294
1828.187, 98.13639
1828.669, 98.15993
1829.151, 98.15713
1829.633, 98.12785
1830.115, 98.07925
1830.597, 98.02452
1831.08, 97.97998
1831.562, 97.96008
1832.044, 97.97318
1832.526, 98.01894
1833.008, 98.0883
1833.49, 98.16666
1833.972, 98.23869
1834.454, 98.29307
1834.937, 98.32572
1835.418, 98.33953
1835.901, 98.34199
1836.383, 98.3408
1836.865, 98.33971
1837.347, 98.33672
1837.829, 98.32538
1838.311, 98.29797
1838.793, 98.24983
1839.275, 98.18308
1839.758, 98.10722
1840.24, 98.03763
1840.722, 97.99147
1841.204, 97.98338
1841.686, 98.02119
1842.168, 98.1039
1842.65, 98.22086
1843.132, 98.35353
1843.615, 98.47829
1844.097, 98.57075
1844.579, 98.61051
1845.061, 98.58598
1845.543, 98.49722
1846.025, 98.35688
1846.507, 98.18771
1846.989, 98.01788
1847.471, 97.87431
1847.954, 97.77649
1848.436, 97.73199
1848.918, 97.73546
1849.4, 97.77118
1849.882, 97.81864
1850.364, 97.85921
1850.846, 97.88166
1851.328, 97.88449
1851.811, 97.87464
1852.293, 97.86337
1852.775, 97.86156
1853.257, 97.87569
1853.739, 97.907
1854.221, 97.95228
1854.703, 98.00692
1855.185, 98.06735
1855.667, 98.13229
1856.15, 98.20222
1856.632, 98.27706
1857.114, 98.35424
1857.596, 98.42709
1858.078, 98.4851
1858.56, 98.51648
1859.042, 98.51048
1859.524, 98.46093
1860.007, 98.36824
1860.489, 98.23999
1860.971, 98.09023
1861.453, 97.93752
1861.935, 97.80188
1862.417, 97.70168
1862.899, 97.65052
1863.381, 97.65443
1863.864, 97.71068
1864.345, 97.80786
1864.828, 97.92761
1865.31, 98.04826
1865.792, 98.1484
1866.274, 98.2107
1866.756, 98.22466
1867.238, 98.18742
1867.72, 98.10331
1868.202, 97.98253
1868.685, 97.83921
1869.167, 97.68986
1869.649, 97.5516
1870.131, 97.44048
1870.613, 97.36987
1871.095, 97.34825
1871.577, 97.37772
1872.059, 97.45309
1872.542, 97.56226
1873.024, 97.68842
1873.506, 97.81203
1873.988, 97.91498
1874.47, 97.98242
1874.952, 98.00531
1875.434, 97.98087
1875.916, 97.91265
1876.398, 97.81017
1876.881, 97.68791
1877.363, 97.56378
1877.845, 97.45702
1878.327, 97.38489
1878.809, 97.35867
1879.291, 97.38094
1879.773, 97.44366
1880.255, 97.52984
1880.738, 97.61803
1881.22, 97.68793
1881.702, 97.72741
1882.184, 97.7361
1882.666, 97.72535
1883.148, 97.71419
1883.63, 97.7225
1884.112, 97.7637
1884.594, 97.83996
1885.077, 97.94075
1885.559, 98.04632
1886.041, 98.13398
1886.523, 98.18545
1887.005, 98.19271
1887.487, 98.16071
1887.969, 98.10509
1888.451, 98.04774
1888.934, 98.00887
1889.416, 98.00154
1889.898, 98.02752
1890.38, 98.07779
1890.862, 98.13667
1891.344, 98.18823
1891.826, 98.22261
1892.308, 98.24002
1892.791, 98.25022
1893.272, 98.26814
1893.755, 98.30618
1894.237, 98.36697
1894.719, 98.43879
1895.201, 98.4959
1895.683, 98.50526
1896.165, 98.43637
1896.647, 98.2715
1897.129, 98.01331
1897.612, 97.68633
1898.094, 97.33133
1898.576, 96.99631
1899.058, 96.72562
1899.54, 96.5513
1900.022, 96.48916
1900.504, 96.53737
1900.986, 96.68
1901.469, 96.89049
1901.951, 97.1361
1902.433, 97.3821
1902.915, 97.59528
1903.397, 97.74802
1903.879, 97.82195
1904.361, 97.8106
1904.843, 97.72129
1905.325, 97.57335
1905.808, 97.39471
1906.29, 97.21641
1906.772, 97.06715
1907.254, 96.96902
1907.736, 96.93574
1908.218, 96.97174
1908.7, 97.07289
1909.182, 97.22623
1909.665, 97.41119
1910.147, 97.5999
1910.629, 97.7609
1911.111, 97.86332
1911.593, 97.88411
1912.075, 97.8134
1912.557, 97.65862
1913.039, 97.44298
1913.521, 97.19961
1914.004, 96.96242
1914.486, 96.7579
1914.968, 96.59982
1915.45, 96.48966
1915.932, 96.42032
1916.414, 96.38251
1916.896, 96.36992
1917.378, 96.38036
1917.861, 96.41402
1918.343, 96.46884
1918.825, 96.5375
1919.307, 96.60717
1919.789, 96.66315
1920.271, 96.6956
1920.753, 96.70464
1921.235, 96.70242
1921.718, 96.71038
1922.199, 96.75182
1922.682, 96.84237
1923.164, 96.98345
1923.646, 97.15854
1924.128, 97.33679
1924.61, 97.48045
1925.092, 97.55524
1925.574, 97.53967
1926.056, 97.43021
1926.539, 97.24154
1927.021, 97.0022
1927.503, 96.74619
1927.985, 96.50545
1928.467, 96.30353
1928.949, 96.15251
1929.431, 96.05358
1929.913, 96.00108
1930.396, 95.98747
1930.878, 96.00774
1931.36, 96.06036
1931.842, 96.14542
1932.324, 96.25937
1932.806, 96.38938
1933.288, 96.5105
1933.77, 96.58815
1934.252, 96.58602
1934.735, 96.47921
1935.217, 96.26432
1935.699, 95.96703
1936.181, 95.63731
1936.663, 95.33828
1937.145, 95.12784
1937.627, 95.04415
1938.109, 95.09502
1938.592, 95.25871
1939.074, 95.49163
1939.556, 95.74284
1940.038, 95.96677
1940.52, 96.13345
1941.002, 96.23063
1941.484, 96.26272
1941.966, 96.24608
1942.448, 96.20796
1942.931, 96.18316
1943.413, 96.21449
1943.895, 96.34695
1944.377, 96.6178
1944.859, 97.04321
1945.341, 97.60606
1945.823, 98.25008
1946.305, 98.88512
1946.788, 99.40443
1947.27, 99.71237
1947.752, 99.75214
1948.234, 99.5216
1948.716, 99.07114
1949.198, 98.48509
1949.68, 97.85223
1950.162, 97.24325
1950.645, 96.69678
1951.126, 96.22208
1951.609, 95.80887
1952.091, 95.44426
1952.573, 95.12459
1953.055, 94.8609
1953.537, 94.67434
1954.019, 94.58654
1954.501, 94.60625
1954.983, 94.7202
1955.466, 94.8894
1955.948, 95.05396
1956.43, 95.14716
1956.912, 95.11259
1957.394, 94.92432
1957.876, 94.5997
1958.358, 94.20009
1958.84, 93.81835
1959.323, 93.55252
1959.805, 93.47282
1960.287, 93.59702
1960.769, 93.87935
1961.251, 94.22282
1961.733, 94.51015
1962.215, 94.64223
1962.697, 94.57529
1963.179, 94.33442
1963.662, 94.00256
1964.144, 93.68677
1964.626, 93.48134
1965.108, 93.44037
1965.59, 93.57385
1966.072, 93.8568
1966.554, 94.25417
1967.036, 94.73596
1967.519, 95.28445
1968.001, 95.8814
1968.483, 96.48931
1968.965, 97.03709
1969.447, 97.42394
1969.929, 97.54176
1970.411, 97.31759
1970.893, 96.74626
1971.375, 95.90141
1971.858, 94.91204
1972.34, 93.91751
1972.822, 93.02319
1973.304, 92.27762
1973.786, 91.67609
1974.268, 91.18934
1974.75, 90.79695
1975.232, 90.5106
1975.715, 90.37251
1976.197, 90.43264
1976.679, 90.71275
1977.161, 91.18125
1977.643, 91.74924
1978.125, 92.3002
1978.607, 92.73548
1979.089, 93.01538
1979.572, 93.17072
1980.053, 93.27816
1980.536, 93.42008
1981.018, 93.64808
1981.5, 93.96448
1981.982, 94.33238
1982.464, 94.69791
1982.946, 95.01996
1983.428, 95.2913
1983.91, 95.54228
1984.393, 95.82225
1984.875, 96.17591
1985.357, 96.61468
1985.839, 97.10921
1986.321, 97.59087
1986.803, 97.97269
1987.285, 98.1735
1987.767, 98.14079
1988.25, 97.86287
1988.732, 97.37022
1989.214, 96.72427
1989.696, 96.00575
1990.178, 95.29942
1990.66, 94.67937
1991.142, 94.19804
1991.624, 93.87363
1992.106, 93.6868
1992.589, 93.58435
1993.071, 93.49183
1993.553, 93.33765
1994.035, 93.08067
1994.517, 92.72895
1994.999, 92.34537
1995.481, 92.03228
1995.963, 91.90332
1996.446, 92.05199
1996.928, 92.52574
1997.41, 93.31349
1997.892, 94.3467
1998.374, 95.5161
1998.856, 96.69916
1999.338, 97.79087
1999.82, 98.7236
2000.302, 99.4747
2000.785, 100.0547
2001.267, 100.492
2001.749, 100.8098
2002.231, 101.0141
2002.713, 101.0864
2003.195, 100.9859
2003.677, 100.6606
2004.159, 100.0641
2004.642, 99.17235
2005.124, 98.00446
2005.606, 96.63264
2006.088, 95.17994
2006.57, 93.802
2007.052, 92.65591
2007.534, 91.86665
2008.016, 91.50297
2008.499, 91.56633
2008.98, 92.00283
2009.463, 92.72043
2009.945, 93.61266
2010.427, 94.57824
2010.909, 95.53216
2011.391, 96.40623
2011.873, 97.14512
2012.355, 97.69533
2012.837, 98.00529
2013.32, 98.02717
2013.802, 97.73245
2014.284, 97.12632
2014.766, 96.26259
2015.248, 95.24432
2015.73, 94.21301
2016.212, 93.32194
2016.694, 92.70495
2017.177, 92.44343
2017.659, 92.54624
2018.141, 92.94484
2018.623, 93.50722
2019.105, 94.06903
2019.587, 94.47762
2020.069, 94.63229
2020.551, 94.5132
2021.033, 94.18183
2021.516, 93.74991
2021.998, 93.33313
2022.48, 93.00642
2022.962, 92.78027
2023.444, 92.60873
2023.926, 92.41737
2024.408, 92.15013
2024.89, 91.79992
2025.373, 91.42197
2025.855, 91.11167
2026.337, 90.9691
2026.819, 91.05975
2027.301, 91.39285
2027.783, 91.91863
2028.265, 92.55653
2028.747, 93.22667
2029.229, 93.8841
2029.712, 94.53122
2030.194, 95.2058
2030.676, 95.94843
2031.158, 96.77122
2031.64, 97.6347
2032.122, 98.45348
2032.604, 99.11836
2033.086, 99.53656
2033.569, 99.66261
2034.051, 99.51324
2034.533, 99.15273
2035.015, 98.66832
2035.497, 98.14021
2035.979, 97.63002
2036.461, 97.17946
2036.943, 96.81635
2037.426, 96.56038
2037.907, 96.42204
2038.39, 96.39541
2038.872, 96.453
2039.354, 96.54248
2039.836, 96.5984
2040.318, 96.55981
2040.8, 96.39107
2041.282, 96.09392
2041.764, 95.7064
2042.247, 95.28695
2042.729, 94.89419
2043.211, 94.56724
2043.693, 94.31834
2044.175, 94.13563
2044.657, 93.9956
2045.139, 93.8792
2045.622, 93.78584
2046.104, 93.73644
2046.586, 93.77081
2047.068, 93.93215
2047.55, 94.25383
2048.032, 94.74328
2048.514, 95.37405
2048.996, 96.08581
2049.479, 96.79446
2049.96, 97.41068
2050.443, 97.8606
2050.925, 98.09912
2051.407, 98.11948
2051.889, 97.95108
2052.371, 97.6516
2052.853, 97.29629
2053.335, 96.96119
2053.817, 96.70875
2054.3, 96.57677
2054.782, 96.57174
2055.264, 96.67478
2055.746, 96.85187
2056.228, 97.06744
2056.71, 97.29466
2057.192, 97.51779
2057.674, 97.72901
2058.156, 97.92006
2058.639, 98.07522
2059.121, 98.16967
2059.603, 98.17354
2060.085, 98.06332
2060.567, 97.83363
2061.049, 97.50623
2061.531, 97.1299
2062.013, 96.77407
2062.496, 96.51409
2062.978, 96.41685
2063.46, 96.52567
2063.942, 96.85253
2064.424, 97.37488
2064.906, 98.03925
2065.388, 98.77046
2065.87, 99.48301
2066.353, 100.0929
2066.835, 100.5306
2067.317, 100.7499
2067.799, 100.733
2068.281, 100.4923
2068.763, 100.0671
2069.245, 99.51909
2069.727, 98.92435
2070.209, 98.36311
2070.692, 97.90967
2071.174, 97.62078
2071.656, 97.52501
2072.138, 97.61789
2072.62, 97.8627
2073.102, 98.19792
2073.584, 98.55241
2074.066, 98.8614
2074.549, 99.08192
2075.031, 99.19838
2075.513, 99.22037
2075.995, 99.17178
2076.477, 99.07874
2076.959, 98.96078
2077.441, 98.82966
2077.923, 98.69306
2078.406, 98.56188
2078.887, 98.45405
2079.37, 98.3934
2079.852, 98.40209
2080.334, 98.49102
2080.816, 98.65296
2081.298, 98.86255
2081.78, 99.0824
2082.262, 99.27558
2082.744, 99.41694
2083.227, 99.49756
2083.709, 99.52269
2084.191, 99.50202
2084.673, 99.43943
2085.155, 99.32868
2085.637, 99.15533
2086.119, 98.90852
2086.601, 98.59337
2087.083, 98.23828
2087.566, 97.89265
2088.048, 97.61387
2088.53, 97.44907
2089.012, 97.4184
2089.494, 97.5058
2089.976, 97.66434
2090.458, 97.83049
2090.94, 97.94568
2091.423, 97.97527
2091.905, 97.91782
2092.387, 97.80301
2092.869, 97.67847
2093.351, 97.59202
2093.833, 97.57706
2094.315, 97.64371
2094.797, 97.77889
2095.28, 97.95425
2095.762, 98.13779
2096.244, 98.30466
2096.726, 98.44411
2097.208, 98.55935
2097.69, 98.66328
2098.172, 98.76964
2098.654, 98.88533
2099.136, 99.005
2099.619, 99.11081
2100.101, 99.17677
2100.583, 99.17952
2101.065, 99.10771
2101.547, 98.97144
2102.029, 98.80302
2102.511, 98.64904
2102.993, 98.55682
2103.476, 98.55631
2103.958, 98.64873
2104.44, 98.80276
2104.922, 98.96228
2105.404, 99.0658
2105.886, 99.06718
2106.368, 98.9529
2106.85, 98.74604
2107.333, 98.4973
2107.814, 98.26513
2108.297, 98.09645
2108.779, 98.0118
2109.261, 98.00426
2109.743, 98.0472
2110.225, 98.1087
2110.707, 98.16468
2111.189, 98.20619
2111.671, 98.23772
2112.154, 98.27073
2112.636, 98.31368
2113.118, 98.36789
2113.6, 98.42636
2114.082, 98.47724
2114.564, 98.50887
2115.046, 98.51134
2115.528, 98.47719
2116.01, 98.40028
2116.493, 98.27533
2116.975, 98.10168
2117.457, 97.88789
2117.939, 97.65577
2118.421, 97.4406
2118.903, 97.28409
2119.385, 97.22318
2119.867, 97.27808
2120.35, 97.44418
2120.832, 97.6949
2121.314, 97.99009
2121.796, 98.29102
2122.278, 98.5727
2122.76, 98.82738
2123.242, 99.05921
2123.724, 99.27175
2124.207, 99.45478
2124.689, 99.58157
2125.171, 99.6147
2125.653, 99.52266
2126.135, 99.29809
2126.617, 98.96786
2127.099, 98.59067
2127.581, 98.2423
2128.063, 97.99224
2128.546, 97.88648
2129.028, 97.93763
2129.51, 98.1286
2129.992, 98.4258
2130.474, 98.79272
2130.956, 99.1999
2131.438, 99.6244
2131.92, 100.0416
2132.403, 100.4173
2132.885, 100.7062
2133.367, 100.8613
2133.849, 100.8529
2134.331, 100.6858
2134.813, 100.4068
2135.295, 100.0935
2135.777, 99.82982
2136.26, 99.68022
2136.741, 99.66946
2137.224, 99.78113
2137.706, 99.97018
2138.188, 100.182
2138.67, 100.3681
2139.152, 100.4923
2139.634, 100.522
2140.116, 100.4217
2140.598, 100.1492
2141.081, 99.66843
2141.563, 98.97299
2142.045, 98.10589
2142.527, 97.16665
2143.009, 96.29163
2143.491, 95.61336
2143.973, 95.21822
2144.455, 95.11318
2144.938, 95.21928
2145.42, 95.40022
2145.902, 95.51141
2146.384, 95.4581
2146.866, 95.23363
2147.348, 94.91502
2147.83, 94.62733
2148.312, 94.4824
2148.794, 94.52833
2149.277, 94.72688
2149.759, 94.97008
2150.241, 95.1289
2150.723, 95.10954
2151.205, 94.89278
2151.687, 94.54178
2152.169, 94.1695
2152.651, 93.88934
2153.134, 93.76993
2153.616, 93.8112
2154.098, 93.95219
2154.58, 94.10178
2155.062, 94.17792
2155.544, 94.14555
2156.026, 94.02892
2156.508, 93.90332
2156.99, 93.8646
2157.473, 93.99173
2157.955, 94.31232
2158.437, 94.7855
2158.919, 95.30609
2159.401, 95.73862
2159.883, 95.96528
2160.365, 95.92866
2160.847, 95.65204
2161.33, 95.22313
2161.812, 94.76622
2162.294, 94.40871
2162.776, 94.24715
2163.258, 94.32693
2163.74, 94.62772
2164.222, 95.06802
2164.704, 95.52792
2165.187, 95.88418
2165.668, 96.04991
2166.151, 95.99602
2166.633, 95.74998
2167.115, 95.3791
2167.597, 94.9563
2168.079, 94.53865
2168.561, 94.15427
2169.043, 93.80609
2169.525, 93.48466
2170.008, 93.18356
2170.49, 92.90446
2170.972, 92.65747
2171.454, 92.45191
2171.936, 92.28999
2172.418, 92.16675
2172.9, 92.07766
2173.382, 92.03185
2173.865, 92.06165
2174.347, 92.21713
2174.829, 92.55083
2175.311, 93.09127
2175.793, 93.81873
2176.275, 94.65778
2176.757, 95.48862
2177.239, 96.18271
2177.721, 96.64409
2178.204, 96.83815
2178.686, 96.80014
2179.168, 96.61573
2179.65, 96.38384
2180.132, 96.18581
2180.614, 96.06264
2181.096, 96.01638
2181.578, 96.02575
2182.061, 96.06461
2182.543, 96.12101
2183.025, 96.19571
2183.507, 96.29551
2183.989, 96.41845
2184.471, 96.54649
2184.953, 96.6499
2185.435, 96.70082
2185.917, 96.68797
2186.4, 96.62588
2186.882, 96.54815
2187.364, 96.49216
2187.846, 96.47935
2188.328, 96.50279
2188.81, 96.52885
2189.292, 96.51512
2189.774, 96.43103
2190.257, 96.2806
2190.739, 96.10809
2191.221, 95.98409
2191.703, 95.98548
2192.185, 96.16497
2192.667, 96.53493
2193.149, 97.06303
2193.631, 97.68235
2194.114, 98.31359
2194.595, 98.88687
2195.078, 99.35902
2195.56, 99.71914
2196.042, 99.98179
2196.524, 100.1732
2197.006, 100.3164
2197.488, 100.4208
2197.97, 100.4821
2198.452, 100.4854
2198.935, 100.4161
2199.417, 100.2679
2199.899, 100.0495
2200.381, 99.78407
2200.863, 99.50615
2201.345, 99.25171
2201.827, 99.0489
2202.309, 98.90971
2202.792, 98.82536
2203.274, 98.77208
2203.756, 98.71833
2204.238, 98.63987
2204.72, 98.52927
2205.202, 98.39951
2205.684, 98.27872
2206.166, 98.19665
2206.648, 98.1674
2207.131, 98.1795
2207.613, 98.19453
2208.095, 98.15947
2208.577, 98.02681
2209.059, 97.77374
2209.541, 97.4159
2210.023, 97.0052
2210.505, 96.61456
2210.988, 96.31654
2211.47, 96.16408
2211.952, 96.17986
2212.434, 96.35593
2212.916, 96.65768
2213.398, 97.03569
2213.88, 97.43326
2214.362, 97.79535
2214.844, 98.07552
2215.327, 98.24178
2215.809, 98.2831
2216.291, 98.21275
2216.773, 98.06624
2217.255, 97.89368
2217.737, 97.74405
2218.219, 97.64839
2218.701, 97.60916
2219.184, 97.59895
2219.666, 97.57415
2220.148, 97.49689
2220.63, 97.35703
2221.112, 97.18487
2221.594, 97.04388
2222.076, 97.00687
2222.558, 97.12698
2223.041, 97.41072
2223.522, 97.81181
2224.005, 98.24358
2224.487, 98.60808
2224.969, 98.83016
2225.451, 98.88179
2225.933, 98.78503
2226.415, 98.5952
2226.897, 98.37109
2227.379, 98.15046
2227.862, 97.93997
2228.344, 97.72355
2228.826, 97.48302
2229.308, 97.21833
2229.79, 96.95641
2230.272, 96.74322
2230.754, 96.62257
2231.236, 96.61423
2231.719, 96.70017
2232.201, 96.8283
2232.683, 96.93354
2233.165, 96.96575
2233.647, 96.91476
2234.129, 96.81731
2234.611, 96.74474
2235.093, 96.77493
2235.575, 96.96101
2236.058, 97.30724
2236.54, 97.76495
2237.022, 98.2459
2237.504, 98.64915
2237.986, 98.89481
2238.468, 98.94682
2238.95, 98.82238
2239.432, 98.58065
2239.915, 98.29939
2240.397, 98.04812
2240.879, 97.86739
2241.361, 97.75955
2241.843, 97.69411
2242.325, 97.62189
2242.807, 97.49737
2243.289, 97.2958
2243.771, 97.0256
2244.254, 96.72711
2244.736, 96.46078
2245.218, 96.2875
2245.7, 96.24962
2246.182, 96.35712
2246.664, 96.58418
2247.146, 96.87727
2247.628, 97.17
2248.111, 97.40283
2248.593, 97.53743
2249.075, 97.56363
2249.557, 97.49628
2250.039, 97.36463
2250.521, 97.19981
2251.003, 97.02629
2251.485, 96.85805
2251.968, 96.70283
2252.449, 96.56747
2252.932, 96.46146
2253.414, 96.39864
2253.896, 96.39222
2254.378, 96.45018
2254.86, 96.57142
2255.342, 96.74458
2255.824, 96.95271
2256.306, 97.1785
2256.789, 97.40921
2257.271, 97.63808
2257.753, 97.86275
2258.235, 98.08069
2258.717, 98.28601
2259.199, 98.46716
2259.681, 98.60981
2260.163, 98.70081
2260.646, 98.73322
2261.128, 98.70916
2261.61, 98.64005
2262.092, 98.54446
2262.574, 98.4451
2263.056, 98.36523
2263.538, 98.32636
2264.02, 98.34502
2264.502, 98.42976
2264.985, 98.57832
2265.467, 98.7753
2265.949, 98.99321
2266.431, 99.19725
2266.913, 99.3535
2267.395, 99.43805
2267.877, 99.44504
2268.359, 99.38789
2268.842, 99.29601
2269.324, 99.20489
2269.806, 99.14532
2270.288, 99.1351
2270.77, 99.17403
2271.252, 99.2476
2271.734, 99.33263
2272.216, 99.40601
2272.698, 99.45126
2273.181, 99.46185
2273.663, 99.44136
2274.145, 99.39973
2274.627, 99.34849
2275.109, 99.29819
2275.591, 99.25502
2276.073, 99.21967
2276.555, 99.18815
2277.038, 99.1531
2277.52, 99.1065
2278.002, 99.04411
2278.484, 98.9682
2278.966, 98.89024
2279.448, 98.82912
2279.93, 98.80624
2280.412, 98.83793
2280.895, 98.92767
2281.376, 99.06213
2281.859, 99.21272
2282.341, 99.34271
2282.823, 99.41934
2283.305, 99.42448
2283.787, 99.36048
2284.269, 99.24947
2284.751, 99.12426
2285.233, 99.01663
2285.716, 98.94675
2286.198, 98.91788
2286.68, 98.91779
2287.162, 98.92679
2287.644, 98.92636
2288.126, 98.90751
2288.608, 98.87274
2289.09, 98.83423
2289.573, 98.80678
2290.055, 98.8009
2290.537, 98.81803
2291.019, 98.84997
2291.501, 98.8823
2291.983, 98.89996
2292.465, 98.89263
2292.947, 98.85841
2293.429, 98.80372
2293.912, 98.7405
2294.394, 98.68163
2294.876, 98.63702
2295.358, 98.61066
2295.84, 98.60001
2296.322, 98.59796
2296.804, 98.5959
2297.286, 98.5873
2297.769, 98.56963
2298.251, 98.5455
2298.733, 98.52106
2299.215, 98.50235
2299.697, 98.49272
2300.179, 98.4896
2300.661, 98.4854
2301.143, 98.46931
2301.625, 98.43198
2302.108, 98.37048
2302.59, 98.29065
2303.072, 98.20735
2303.554, 98.14046
2304.036, 98.1086
2304.518, 98.12358
2305.0, 98.18592
2305.482, 98.28482
2305.965, 98.40092
2306.447, 98.5126
2306.929, 98.60127
2307.411, 98.65649
2307.893, 98.67705
2308.375, 98.67025
2308.857, 98.648
2309.339, 98.62339
2309.822, 98.60691
2310.303, 98.60497
2310.786, 98.61861
2311.268, 98.64536
2311.75, 98.67895
2312.232, 98.71208
2312.714, 98.73759
2313.196, 98.74992
2313.678, 98.74675
2314.16, 98.7289
2314.643, 98.70025
2315.125, 98.66567
2315.607, 98.62979
2316.089, 98.59543
2316.571, 98.56399
2317.053, 98.53629
2317.535, 98.51461
2318.017, 98.50359
2318.5, 98.50964
2318.982, 98.53925
2319.464, 98.59512
2319.946, 98.67421
2320.428, 98.76675
2320.91, 98.85786
2321.392, 98.93217
2321.874, 98.97801
2322.356, 98.99157
2322.839, 98.97719
2323.321, 98.94506
2323.803, 98.90688
2324.285, 98.87199
2324.767, 98.84457
2325.249, 98.82376
2325.731, 98.8057
2326.213, 98.7857
2326.696, 98.76024
2327.178, 98.72811
2327.66, 98.69027
2328.142, 98.649
2328.624, 98.60667
2329.106, 98.56549
2329.588, 98.52774
2330.07, 98.49606
2330.552, 98.47434
2331.035, 98.46615
2331.517, 98.47346
2331.999, 98.49428
2332.481, 98.5219
2332.963, 98.54622
2333.445, 98.55611
2333.927, 98.54327
2334.409, 98.50513
2334.892, 98.4465
2335.374, 98.37923
2335.856, 98.31934
2336.338, 98.28127
2336.82, 98.27397
2337.302, 98.297
2337.784, 98.34068
2338.266, 98.38995
2338.749, 98.42963
2339.23, 98.44994
2339.713, 98.44925
2340.195, 98.43443
2340.677, 98.41833
2341.159, 98.41427
2341.641, 98.42855
2342.123, 98.456
2342.605, 98.48306
2343.087, 98.49696
2343.57, 98.4935
2344.052, 98.47736
2344.534, 98.45774
2345.016, 98.44333
2345.498, 98.43778
2345.98, 98.43963
2346.462, 98.44493
2346.944, 98.45114
2347.427, 98.45908
2347.909, 98.47141
2348.391, 98.4894
2348.873, 98.51104
2349.355, 98.53157
2349.837, 98.54581
2350.319, 98.55053
2350.801, 98.54713
2351.283, 98.54073
2351.766, 98.53763
2352.248, 98.54193
2352.73, 98.55261
2353.212, 98.56473
2353.694, 98.57256
2354.176, 98.57428
2354.658, 98.57452
2355.14, 98.58253
2355.623, 98.60801
2356.105, 98.65566
2356.587, 98.72084
2357.069, 98.78831
2357.551, 98.83698
2358.033, 98.85207
2358.515, 98.83543
2358.997, 98.80683
2359.479, 98.79148
2359.962, 98.80159
2360.444, 98.82156
2360.926, 98.82172
2361.408, 98.78724
2361.89, 98.72925
2362.372, 98.67468
2362.854, 98.65014
2363.336, 98.67064
2363.819, 98.73242
2364.301, 98.81826
2364.783, 98.90739
2365.265, 98.98504
2365.747, 99.04226
2366.229, 99.07593
2366.711, 99.08627
2367.193, 99.07568
2367.676, 99.04736
2368.157, 99.00514
2368.64, 98.95423
2369.122, 98.90173
2369.604, 98.85585
2370.086, 98.82406
2370.568, 98.81161
2371.05, 98.82001
2371.532, 98.84698
2372.014, 98.8871
2372.497, 98.93298
2372.979, 98.97771
2373.461, 99.01609
2373.943, 99.04607
2374.425, 99.06882
2374.907, 99.08719
2375.389, 99.10386
2375.872, 99.11962
2376.354, 99.132
2376.836, 99.13554
2377.318, 99.12421
2377.8, 99.09393
2378.282, 99.04481
2378.764, 98.98218
2379.246, 98.9164
2379.729, 98.85992
2380.21, 98.82453
2380.693, 98.81877
2381.175, 98.84618
2381.657, 98.90505
2382.139, 98.98945
2382.621, 99.09017
2383.103, 99.19675
2383.585, 99.29828
2384.067, 99.38482
2384.55, 99.44838
2385.032, 99.48338
2385.514, 99.48756
2385.996, 99.46247
2386.478, 99.4124
2386.96, 99.34387
2387.442, 99.26421
2387.924, 99.18051
2388.406, 99.09925
2388.889, 99.02616
2389.371, 98.96692
2389.853, 98.92699
2390.335, 98.91059
2390.817, 98.91906
2391.299, 98.94921
2391.781, 98.99175
2392.263, 99.03265
2392.746, 99.05575
2393.228, 99.04784
2393.71, 99.00329
2394.192, 98.92714
2394.674, 98.835
2395.156, 98.74937
2395.638, 98.69292
2396.12, 98.68188
2396.603, 98.72062
2397.085, 98.80094
2397.567, 98.90444
2398.049, 99.0086
2398.531, 99.09362
2399.013, 99.14721
2399.495, 99.16602
2399.977, 99.15416
2400.459, 99.11983
2400.942, 99.06721
2401.424, 98.99849
2401.906, 98.91325
2402.388, 98.8119
2402.87, 98.69934
2403.352, 98.5874
2403.834, 98.49481
2404.316, 98.44281
2404.799, 98.45032
2405.281, 98.52698
2405.763, 98.6694
2406.245, 98.8601
2406.727, 99.07036
2407.209, 99.26674
2407.691, 99.41845
2408.173, 99.50401
2408.656, 99.51591
2409.137, 99.46064
2409.62, 99.35603
2410.102, 99.22571
2410.584, 99.09367
2411.066, 98.97836
2411.548, 98.8907
2412.03, 98.83282
2412.512, 98.80073
2412.994, 98.78729
2413.477, 98.78555
2413.959, 98.79094
2414.441, 98.80179
2414.923, 98.81748
2415.405, 98.83648
2415.887, 98.85483
2416.369, 98.86519
2416.851, 98.85953
2417.333, 98.83215
2417.816, 98.7827
2418.298, 98.71867
2418.78, 98.65301
2419.262, 98.60115
2419.744, 98.57544
2420.226, 98.58105
2420.708, 98.61475
2421.19, 98.66634
2421.673, 98.72333
2422.155, 98.7757
2422.637, 98.81886
2423.119, 98.85378
2423.601, 98.88323
2424.083, 98.90789
2424.565, 98.92278
2425.047, 98.91753
2425.53, 98.87994
2426.012, 98.80241
2426.494, 98.68733
2426.976, 98.54911
2427.458, 98.41148
2427.94, 98.30097
2428.422, 98.23824
2428.904, 98.23135
2429.386, 98.27376
2429.869, 98.34639
2430.351, 98.42459
2430.833, 98.48555
2431.315, 98.51547
2431.797, 98.51254
2432.279, 98.48569
2432.761, 98.45134
2433.243, 98.42789
2433.726, 98.4314
2434.208, 98.47275
2434.69, 98.55619
2435.172, 98.67885
2435.654, 98.83153
2436.136, 98.99946
2436.618, 99.16399
2437.1, 99.30532
2437.583, 99.40619
2438.064, 99.45494
2438.547, 99.4483
2439.029, 99.39176
2439.511, 99.29802
2439.993, 99.18394
2440.475, 99.06699
2440.957, 98.96233
2441.439, 98.8809
2441.921, 98.8287
2442.404, 98.80677
2442.886, 98.81092
2443.368, 98.83272
2443.85, 98.85982
2444.332, 98.87868
2444.814, 98.87768
2445.296, 98.85062
2445.778, 98.79963
2446.26, 98.73508
2446.743, 98.67249
2447.225, 98.62753
2447.707, 98.6096
2448.189, 98.61822
2448.671, 98.64226
2449.153, 98.66375
2449.635, 98.66414
2450.117, 98.63141
2450.6, 98.56375
2451.082, 98.47057
2451.564, 98.36839
2452.046, 98.27499
2452.528, 98.20422
2453.01, 98.16329
2453.492, 98.1524
2453.974, 98.16867
2454.457, 98.20839
2454.939, 98.26969
2455.421, 98.35239
2455.903, 98.45557
2456.385, 98.57504
2456.867, 98.70206
2457.349, 98.82304
2457.831, 98.92265
2458.313, 98.98706
2458.796, 99.00812
2459.278, 98.98486
2459.76, 98.92358
2460.242, 98.83626
2460.724, 98.73775
2461.206, 98.6428
2461.688, 98.56461
2462.17, 98.51296
2462.653, 98.49442
2463.135, 98.51196
2463.617, 98.56536
2464.099, 98.65149
2464.581, 98.76492
2465.063, 98.89765
2465.545, 99.04019
2466.027, 99.18123
2466.51, 99.30883
2466.992, 99.41105
2467.474, 99.47777
2467.956, 99.50309
2468.438, 99.48743
2468.92, 99.4389
2469.402, 99.37243
2469.884, 99.30685
2470.366, 99.26022
2470.849, 99.24498
2471.331, 99.26411
2471.813, 99.31049
2472.295, 99.36942
2472.777, 99.42315
2473.259, 99.45688
2473.741, 99.4623
2474.223, 99.43964
2474.706, 99.39587
2475.188, 99.34184
2475.67, 99.28806
2476.152, 99.24313
2476.634, 99.21174
2477.116, 99.19586
2477.598, 99.1947
2478.08, 99.20556
2478.563, 99.22361
2479.044, 99.24175
2479.527, 99.25195
2480.009, 99.24717
2480.491, 99.22478
2480.973, 99.18863
2481.455, 99.14975
2481.937, 99.12399
2482.419, 99.12702
2482.901, 99.16875
2483.384, 99.24892
2483.866, 99.35639
2484.348, 99.47224
2484.83, 99.57555
2485.312, 99.64952
2485.794, 99.68684
2486.276, 99.69006
2486.758, 99.66926
2487.24, 99.63677
2487.723, 99.60301
2488.205, 99.57269
2488.687, 99.54527
2489.169, 99.51666
2489.651, 99.48284
2490.133, 99.44163
2490.615, 99.3942
2491.097, 99.34455
2491.58, 99.29823
2492.062, 99.2612
2492.544, 99.23936
2493.026, 99.23755
2493.508, 99.25922
2493.99, 99.30491
2494.472, 99.37076
2494.954, 99.44713
2495.437, 99.51958
2495.919, 99.57119
2496.401, 99.58712
2496.883, 99.55955
2497.365, 99.49093
2497.847, 99.39431
2498.329, 99.28977
2498.811, 99.19841
2499.293, 99.13627
2499.776, 99.10918
2500.258, 99.11237
2500.74, 99.13232
2501.222, 99.1525
2501.704, 99.15882
2502.186, 99.14346
2502.668, 99.10647
2503.15, 99.05402
2503.633, 98.99466
2504.115, 98.93671
2504.597, 98.88552
2505.079, 98.84393
2505.561, 98.81353
2506.043, 98.7964
2506.525, 98.7957
2507.007, 98.81528
2507.49, 98.85671
2507.971, 98.91784
2508.454, 98.99051
2508.936, 99.06215
2509.418, 99.11881
2509.9, 99.14954
2510.382, 99.15092
2510.864, 99.12852
2511.346, 99.09582
2511.828, 99.06969
2512.311, 99.06419
2512.793, 99.08594
2513.275, 99.13132
2513.757, 99.18835
2514.239, 99.24088
2514.721, 99.27538
2515.203, 99.28505
2515.685, 99.27184
2516.167, 99.24407
2516.65, 99.21166
2517.132, 99.18094
2517.614, 99.15171
2518.096, 99.11723
2518.578, 99.06854
2519.06, 98.99882
2519.542, 98.9077
2520.024, 98.80206
2520.507, 98.69411
2520.989, 98.59682
2521.471, 98.5197
2521.953, 98.4668
2522.435, 98.43787
2522.917, 98.43082
2523.399, 98.44571
2523.881, 98.48536
2524.364, 98.55506
2524.846, 98.65799
2525.328, 98.79182
2525.81, 98.94598
2526.292, 99.10271
2526.774, 99.2408
2527.256, 99.34103
2527.738, 99.39058
2528.22, 99.38556
2528.703, 99.32933
2529.185, 99.22991
2529.667, 99.09622
2530.149, 98.93729
2530.631, 98.76215
2531.113, 98.58205
2531.595, 98.41084
2532.077, 98.26472
2532.56, 98.15849
2533.042, 98.10168
2533.524, 98.09457
2534.006, 98.12868
2534.488, 98.18879
2534.97, 98.2583
2535.452, 98.32386
2535.934, 98.37926
2536.417, 98.42451
2536.898, 98.46371
2537.381, 98.50112
2537.863, 98.53953
2538.345, 98.57972
2538.827, 98.62318
2539.309, 98.67413
2539.791, 98.73991
2540.273, 98.8283
2540.755, 98.94341
2541.238, 99.0805
2541.72, 99.22494
2542.202, 99.35466
2542.684, 99.44699
2543.166, 99.48607
2543.648, 99.4697
2544.13, 99.40934
2544.612, 99.32538
2545.094, 99.23874
2545.577, 99.16208
2546.059, 99.09531
2546.541, 99.0268
2547.023, 98.93927
2547.505, 98.81958
2547.987, 98.66547
2548.469, 98.48888
2548.951, 98.31272
2549.434, 98.16454
2549.916, 98.0676
2550.398, 98.03537
2550.88, 98.06835
2551.362, 98.15658
2551.844, 98.28371
2552.326, 98.43235
2552.808, 98.58834
2553.291, 98.74263
2553.773, 98.89152
2554.255, 99.03452
2554.737, 99.17278
2555.219, 99.30678
2555.701, 99.43501
2556.183, 99.55327
2556.665, 99.65488
2557.147, 99.73165
2557.63, 99.77592
2558.112, 99.78312
2558.594, 99.75336
2559.076, 99.69347
2559.558, 99.61497
2560.04, 99.5319
2560.522, 99.45653
2561.004, 99.396
2561.487, 99.35048
2561.969, 99.31374
2562.451, 99.27579
2562.933, 99.22746
2563.415, 99.16345
2563.897, 99.0845
2564.379, 98.99648
2564.861, 98.90916
2565.344, 98.83179
2565.825, 98.77214
2566.308, 98.73457
2566.79, 98.72052
2567.272, 98.72923
2567.754, 98.75844
2568.236, 98.8048
2568.718, 98.86402
2569.2, 98.93045
2569.682, 98.99727
2570.165, 99.05735
2570.647, 99.10396
2571.129, 99.13173
2571.611, 99.13744
2572.093, 99.11945
2572.575, 99.07807
2573.057, 99.01525
2573.539, 98.93497
2574.021, 98.84336
2574.504, 98.74879
2574.986, 98.66129
2575.468, 98.59071
2575.95, 98.54494
2576.432, 98.52858
2576.914, 98.54146
2577.396, 98.5803
2577.878, 98.6393
2578.361, 98.71275
2578.843, 98.7952
2579.325, 98.88185
2579.807, 98.96719
2580.289, 99.04438
2580.771, 99.10473
2581.253, 99.13977
2581.735, 99.14354
2582.218, 99.11564
2582.7, 99.06214
2583.182, 98.99512
2583.664, 98.92924
2584.146, 98.87756
2584.628, 98.84775
2585.11, 98.8406
2585.592, 98.8504
2586.074, 98.86816
2586.557, 98.88469
2587.039, 98.89364
2587.521, 98.89232
2588.003, 98.88177
2588.485, 98.86445
2588.967, 98.84345
2589.449, 98.82158
2589.931, 98.8021
2590.414, 98.78899
2590.896, 98.78632
2591.378, 98.79814
2591.86, 98.82568
2592.342, 98.86639
2592.824, 98.91344
2593.306, 98.95717
2593.788, 98.9883
2594.271, 99.0008
2594.752, 98.99432
2595.235, 98.97387
2595.717, 98.9481
2596.199, 98.92502
2596.681, 98.90965
2597.163, 98.90161
2597.645, 98.89658
2598.127, 98.88866
2598.609, 98.87309
2599.092, 98.84917
2599.574, 98.82023
2600.056, 98.7926
2600.538, 98.77318
2601.02, 98.76701
2601.502, 98.7759
2601.984, 98.79855
2602.466, 98.83182
2602.948, 98.87153
2603.431, 98.91409
2603.913, 98.95628
2604.395, 98.99532
2604.877, 99.02842
2605.359, 99.05274
2605.841, 99.06539
2606.323, 99.06433
2606.805, 99.04846
2607.288, 99.0178
2607.77, 98.97363
2608.252, 98.91802
2608.734, 98.85426
2609.216, 98.78746
2609.698, 98.72501
2610.18, 98.67618
2610.662, 98.65099
2611.145, 98.65755
2611.627, 98.69907
2612.109, 98.77189
2612.591, 98.8643
2613.073, 98.95924
2613.555, 99.03761
2614.037, 99.08367
2614.519, 99.08917
2615.001, 99.05578
2615.484, 98.99403
2615.966, 98.92013
2616.448, 98.85118
2616.93, 98.8012
2617.412, 98.77793
2617.894, 98.78271
2618.376, 98.81189
2618.858, 98.85915
2619.341, 98.91727
2619.823, 98.97988
2620.305, 99.04163
2620.787, 99.09814
2621.269, 99.14584
2621.751, 99.1819
2622.233, 99.20482
2622.715, 99.21495
2623.198, 99.21417
2623.679, 99.20564
2624.162, 99.19257
2624.644, 99.17754
2625.126, 99.16203
2625.608, 99.1468
2626.09, 99.13314
2626.572, 99.12328
2627.054, 99.1206
2627.536, 99.12931
2628.019, 99.15207
2628.501, 99.18839
2628.983, 99.23372
2629.465, 99.27951
2629.947, 99.3154
2630.429, 99.33192
2630.911, 99.32345
2631.393, 99.28998
2631.875, 99.2368
2632.358, 99.17253
2632.84, 99.10637
2633.322, 99.0455
2633.804, 98.9938
2634.286, 98.9524
2634.768, 98.92113
2635.25, 98.90091
2635.732, 98.89436
2636.215, 98.90582
2636.697, 98.93896
2637.179, 98.99409
2637.661, 99.06646
2638.143, 99.14531
2638.625, 99.21648
2639.107, 99.26582
2639.589, 99.28326
2640.072, 99.26659
2640.554, 99.22202
2641.036, 99.16187
2641.518, 99.10121
2642.0, 99.05259
2642.482, 99.02266
2642.964, 99.01108
2643.446, 99.01148
2643.928, 99.01511
2644.411, 99.01407
2644.893, 99.00475
2645.375, 98.98836
2645.857, 98.96988
2646.339, 98.95531
2646.821, 98.94947
2647.303, 98.95335
2647.785, 98.96492
2648.268, 98.97951
2648.75, 98.99263
2649.232, 99.0013
2649.714, 99.00481
2650.196, 99.0044
2650.678, 99.00198
2651.16, 98.99828
2651.642, 98.99269
2652.125, 98.98312
2652.606, 98.96739
2653.089, 98.94462
2653.571, 98.9166
2654.053, 98.88779
2654.535, 98.86459
2655.017, 98.85331
2655.499, 98.85899
2655.981, 98.88338
2656.463, 98.92472
2656.946, 98.97811
2657.428, 99.03664
2657.91, 99.09241
2658.392, 99.13828
2658.874, 99.16859
2659.356, 99.18034
2659.838, 99.17354
2660.32, 99.15142
2660.802, 99.12007
2661.285, 99.08788
2661.767, 99.06361
2662.249, 99.05473
2662.731, 99.06547
2663.213, 99.09576
2663.695, 99.14089
2664.177, 99.19268
2664.659, 99.24179
2665.142, 99.27989
2665.624, 99.3023
2666.106, 99.30843
2666.588, 99.30221
2667.07, 99.2898
2667.552, 99.27823
2668.034, 99.27269
2668.516, 99.2753
2668.999, 99.28493
2669.481, 99.29744
2669.963, 99.30753
2670.445, 99.30994
2670.927, 99.30134
2671.409, 99.28097
2671.891, 99.25149
2672.373, 99.2179
2672.855, 99.1869
2673.338, 99.16525
2673.82, 99.15778
2674.302, 99.16638
2674.784, 99.18909
2675.266, 99.22077
2675.748, 99.25417
2676.23, 99.28266
2676.712, 99.3014
2677.195, 99.30908
2677.677, 99.30798
2678.159, 99.30252
2678.641, 99.29729
2679.123, 99.29517
2679.605, 99.29586
2680.087, 99.29636
2680.569, 99.29221
2681.052, 99.27925
2681.533, 99.25607
2682.016, 99.22433
2682.498, 99.18862
2682.98, 99.15514
2683.462, 99.12917
2683.944, 99.11413
2684.426, 99.11067
2684.908, 99.11691
2685.39, 99.13016
2685.873, 99.14785
2686.355, 99.16895
2686.837, 99.19361
2687.319, 99.22274
2687.801, 99.25646
2688.283, 99.29373
2688.765, 99.33123
2689.247, 99.36449
2689.729, 99.3884
2690.212, 99.39882
2690.694, 99.39336
2691.176, 99.37193
2691.658, 99.33652
2692.14, 99.29008
2692.622, 99.23589
2693.104, 99.17672
2693.586, 99.11441
2694.069, 99.05009
2694.551, 98.98487
2695.033, 98.9203
2695.515, 98.85889
2695.997, 98.80424
2696.479, 98.76044
2696.961, 98.73115
2697.443, 98.71837
2697.926, 98.72192
2698.408, 98.73862
2698.89, 98.76302
2699.372, 98.78789
2699.854, 98.8065
2700.336, 98.8134
2700.818, 98.80582
2701.3, 98.78437
2701.782, 98.75259
2702.265, 98.71588
2702.747, 98.68048
2703.229, 98.65186
2703.711, 98.6339
2704.193, 98.62758
2704.675, 98.63096
2705.157, 98.63928
2705.639, 98.64568
2706.122, 98.64214
2706.604, 98.62168
2707.086, 98.57937
2707.568, 98.51419
2708.05, 98.42912
2708.532, 98.33108
2709.014, 98.22912
2709.496, 98.13283
2709.979, 98.04984
2710.461, 97.98468
2710.943, 97.93845
2711.425, 97.90964
2711.907, 97.895
2712.389, 97.89149
2712.871, 97.89724
2713.353, 97.91166
2713.835, 97.93538
2714.318, 97.96935
2714.8, 98.01441
2715.282, 98.07018
2715.764, 98.1359
2716.246, 98.20972
2716.728, 98.28934
2717.21, 98.37185
2717.692, 98.4535
2718.175, 98.53029
2718.656, 98.59801
2719.139, 98.65289
2719.621, 98.69261
2720.103, 98.71677
2720.585, 98.72672
2721.067, 98.72554
2721.549, 98.71661
2722.031, 98.70345
2722.513, 98.68887
2722.996, 98.67525
2723.478, 98.66462
2723.96, 98.65962
2724.442, 98.66273
2724.924, 98.67563
2725.406, 98.69863
2725.888, 98.72916
2726.37, 98.76166
2726.853, 98.78863
2727.335, 98.80222
2727.817, 98.79669
2728.299, 98.7699
2728.781, 98.72463
2729.263, 98.66752
2729.745, 98.60779
2730.227, 98.55462
2730.709, 98.51554
2731.192, 98.49484
2731.674, 98.49328
2732.156, 98.50838
2732.638, 98.53538
2733.12, 98.56789
2733.602, 98.59907
2734.084, 98.62215
2734.566, 98.63144
2735.049, 98.6228
2735.531, 98.59443
2736.013, 98.54671
2736.495, 98.48255
2736.977, 98.40588
2737.459, 98.32155
2737.941, 98.2344
2738.423, 98.14867
2738.906, 98.06847
2739.388, 97.99796
2739.87, 97.94076
2740.352, 97.90002
2740.834, 97.87749
2741.316, 97.87245
2741.798, 97.88164
2742.28, 97.89995
2742.762, 97.92198
2743.245, 97.94379
2743.727, 97.96468
2744.209, 97.98758
2744.691, 98.01758
2745.173, 98.06067
2745.655, 98.12019
2746.137, 98.19565
2746.619, 98.28215
2747.102, 98.3713
2747.583, 98.45358
2748.066, 98.52156
2748.548, 98.57169
2749.03, 98.60486
2749.512, 98.62597
2749.994, 98.64178
2750.476, 98.65836
2750.958, 98.67947
2751.44, 98.70502
2751.923, 98.73184
2752.405, 98.75482
2752.887, 98.76861
2753.369, 98.76979
2753.851, 98.7579
2754.333, 98.73595
2754.815, 98.70969
2755.297, 98.68589
2755.78, 98.6703
2756.262, 98.66588
2756.744, 98.6715
2757.226, 98.68223
2757.708, 98.69061
2758.19, 98.68906
2758.672, 98.67195
2759.154, 98.63746
2759.636, 98.5881
2760.119, 98.52977
2760.601, 98.46998
2761.083, 98.41587
2761.565, 98.37256
2762.047, 98.34243
2762.529, 98.32557
2763.011, 98.31996
2763.493, 98.32255
2763.976, 98.32948
2764.458, 98.33645
2764.94, 98.33883
2765.422, 98.33183
2765.904, 98.31162
2766.386, 98.27657
2766.868, 98.22784
2767.35, 98.16973
2767.833, 98.10879
2768.315, 98.05234
2768.797, 98.0066
2769.279, 97.97504
2769.761, 97.95738
2770.243, 97.95049
2770.725, 97.949
2771.207, 97.94718
2771.689, 97.94022
2772.172, 97.92522
2772.654, 97.90179
2773.136, 97.87192
2773.618, 97.83979
2774.1, 97.81097
2774.582, 97.79154
2775.064, 97.78724
2775.546, 97.80147
2776.029, 97.83492
2776.51, 97.88457
2776.993, 97.94463
2777.475, 98.00755
2777.957, 98.06666
2778.439, 98.11687
2778.921, 98.15607
2779.403, 98.18446
2779.885, 98.20309
2780.367, 98.21238
2780.85, 98.21165
2781.332, 98.19895
2781.814, 98.17303
2782.296, 98.13441
2782.778, 98.08678
2783.26, 98.03645
2783.742, 97.99048
2784.224, 97.95424
2784.707, 97.92913
2785.189, 97.9123
2785.671, 97.89712
2786.153, 97.87614
2786.635, 97.84395
2787.117, 97.79907
2787.599, 97.74466
2788.081, 97.68729
2788.563, 97.63474
2789.046, 97.59354
2789.528, 97.56731
2790.01, 97.55596
2790.492, 97.55626
2790.974, 97.56236
2791.456, 97.56722
2791.938, 97.563
2792.42, 97.54251
2792.903, 97.50016
2793.385, 97.43384
2793.867, 97.34599
2794.349, 97.24481
2794.831, 97.14309
2795.313, 97.05645
2795.795, 96.99905
2796.277, 96.98044
2796.76, 97.00185
2797.242, 97.05573
2797.724, 97.12696
2798.206, 97.19609
2798.688, 97.24414
2799.17, 97.25663
2799.652, 97.22684
2800.134, 97.15629
2800.616, 97.05403
2801.099, 96.93414
2801.581, 96.81225
2802.063, 96.70243
2802.545, 96.6143
2803.027, 96.55154
2803.509, 96.51131
2803.991, 96.48614
2804.473, 96.46574
2804.956, 96.44075
2805.438, 96.40511
2805.92, 96.3583
2806.402, 96.30496
2806.884, 96.25277
2807.366, 96.20953
2807.848, 96.17958
2808.33, 96.1623
2808.813, 96.15157
2809.294, 96.13782
2809.777, 96.111
2810.259, 96.06356
2810.741, 95.99168
2811.223, 95.89545
2811.705, 95.77752
2812.187, 95.64061
2812.669, 95.48672
2813.151, 95.31578
2813.634, 95.12685
2814.116, 94.91824
2814.598, 94.68871
2815.08, 94.43718
2815.562, 94.16249
2816.044, 93.86301
2816.526, 93.53667
2817.008, 93.18253
2817.49, 92.80211
2817.973, 92.40041
2818.455, 91.98616
2818.937, 91.57019
2819.419, 91.16317
2819.901, 90.77283
2820.383, 90.40279
2820.865, 90.05296
2821.347, 89.72186
2821.83, 89.40929
2822.312, 89.11908
2822.794, 88.85949
2823.276, 88.64197
2823.758, 88.47794
2824.24, 88.37492
2824.722, 88.33431
2825.204, 88.35098
2825.687, 88.41456
2826.169, 88.51263
2826.651, 88.63428
2827.133, 88.77193
2827.615, 88.92205
2828.097, 89.08363
2828.579, 89.25599
2829.061, 89.43645
2829.543, 89.61921
2830.026, 89.79553
2830.508, 89.95553
2830.99, 90.09003
2831.472, 90.19305
2831.954, 90.26296
2832.436, 90.30265
2832.918, 90.31863
2833.4, 90.31932
2833.883, 90.31316
2834.365, 90.30666
2834.847, 90.30297
2835.329, 90.30122
2835.811, 90.29599
2836.293, 90.27856
2836.775, 90.23782
2837.257, 90.16247
2837.74, 90.04263
2838.221, 89.87177
2838.704, 89.64722
2839.186, 89.37051
2839.668, 89.04607
2840.15, 88.67982
2840.632, 88.27734
2841.114, 87.8428
2841.596, 87.37817
2842.078, 86.88337
2842.561, 86.35718
2843.043, 85.79778
2843.525, 85.20356
2844.007, 84.5728
2844.489, 83.90359
2844.971, 83.19272
2845.453, 82.4353
2845.935, 81.62528
2846.417, 80.75668
2846.9, 79.82551
2847.382, 78.83202
2847.864, 77.78218
2848.346, 76.68786
2848.828, 75.56581
2849.31, 74.43463
2849.792, 73.31231
2850.274, 72.21334
2850.757, 71.1479
2851.239, 70.12213
2851.721, 69.13987
2852.203, 68.20539
2852.685, 67.32481
2853.167, 66.50732
2853.649, 65.76452
2854.131, 65.10851
2854.614, 64.55
2855.096, 64.09611
2855.578, 63.74955
2856.06, 63.50866
2856.542, 63.36888
2857.024, 63.32425
2857.506, 63.36927
2857.988, 63.50054
2858.47, 63.71691
2858.953, 64.01945
2859.435, 64.41048
2859.917, 64.89204
2860.399, 65.46478
2860.881, 66.12648
2861.363, 66.8713
2861.845, 67.68973
2862.327, 68.56905
2862.81, 69.4942
2863.292, 70.44911
2863.774, 71.41808
2864.256, 72.38719
2864.738, 73.34458
2865.22, 74.28109
2865.702, 75.18967
2866.184, 76.06513
2866.667, 76.90329
2867.148, 77.70077
2867.631, 78.45395
2868.113, 79.15913
2868.595, 79.81245
2869.077, 80.40969
2869.559, 80.94762
2870.041, 81.42421
2870.523, 81.83969
2871.005, 82.19706
2871.488, 82.50172
2871.97, 82.7603
2872.452, 82.97918
2872.934, 83.16241
2873.416, 83.31058
2873.898, 83.42052
2874.38, 83.48636
2874.862, 83.50195
2875.344, 83.46268
2875.827, 83.36787
2876.309, 83.22096
2876.791, 83.02879
2877.273, 82.79951
2877.755, 82.54067
2878.237, 82.2574
2878.719, 81.95163
2879.201, 81.62301
2879.684, 81.27034
2880.166, 80.89349
2880.648, 80.49492
2881.13, 80.081
2881.612, 79.66199
2882.094, 79.2509
2882.576, 78.86237
2883.058, 78.51046
2883.541, 78.20681
2884.023, 77.9585
2884.505, 77.76763
2884.987, 77.63115
2885.469, 77.5418
2885.951, 77.49055
2886.433, 77.46804
2886.915, 77.46639
2887.397, 77.47952
2887.88, 77.5026
2888.362, 77.53018
2888.844, 77.55556
2889.326, 77.57052
2889.808, 77.56623
2890.29, 77.5358
2890.772, 77.47643
2891.254, 77.39088
2891.737, 77.28684
2892.219, 77.17522
2892.701, 77.06671
2893.183, 76.96919
2893.665, 76.88635
2894.147, 76.81783
2894.629, 76.76146
2895.111, 76.71544
2895.594, 76.68018
2896.075, 76.65873
2896.558, 76.65551
2897.04, 76.67435
2897.522, 76.71674
2898.004, 76.78127
2898.486, 76.86406
2898.968, 76.96078
2899.45, 77.06796
2899.932, 77.18383
2900.415, 77.3084
2900.897, 77.44207
2901.379, 77.58478
2901.861, 77.73484
2902.343, 77.89043
2902.825, 78.04997
2903.307, 78.21413
2903.789, 78.38612
2904.271, 78.57126
2904.754, 78.7754
2905.236, 79.00272
2905.718, 79.25424
2906.2, 79.52721
2906.682, 79.81589
2907.164, 80.11298
2907.646, 80.41097
2908.128, 80.70352
2908.611, 80.98504
2909.093, 81.25066
2909.575, 81.49553
2910.057, 81.71508
2910.539, 81.90546
2911.021, 82.06489
2911.503, 82.19379
2911.985, 82.29536
2912.468, 82.37374
2912.95, 82.43255
2913.432, 82.47298
2913.914, 82.49276
2914.396, 82.48648
2914.878, 82.44671
2915.36, 82.36565
2915.842, 82.23709
2916.324, 82.05674
2916.807, 81.82263
2917.289, 81.53388
2917.771, 81.18996
2918.253, 80.78973
2918.735, 80.33112
2919.217, 79.81068
2919.699, 79.22425
2920.181, 78.56678
2920.664, 77.83292
2921.146, 77.01756
2921.628, 76.11684
2922.11, 75.12984
2922.592, 74.05948
2923.074, 72.91392
2923.556, 71.70646
2924.038, 70.45469
2924.521, 69.17924
2925.002, 67.9022
2925.485, 66.64611
2925.967, 65.43356
2926.449, 64.28717
2926.931, 63.22948
2927.413, 62.28228
2927.895, 61.46524
2928.377, 60.79369
2928.859, 60.27598
2929.342, 59.91232
2929.824, 59.6939
2930.306, 59.60411
2930.788, 59.62104
2931.27, 59.72084
2931.752, 59.88118
2932.234, 60.08341
2932.716, 60.31386
2933.198, 60.56351
2933.681, 60.82644
2934.163, 61.0983
2934.645, 61.37508
2935.127, 61.65308
2935.609, 61.92949
2936.091, 62.20325
2936.573, 62.47605
2937.055, 62.75217
2937.538, 63.03727
2938.02, 63.33667
2938.502, 63.6535
2938.984, 63.98689
2939.466, 64.33161
2939.948, 64.67873
2940.43, 65.01675
2940.912, 65.33311
2941.395, 65.6153
2941.877, 65.85137
2942.359, 66.02996
2942.841, 66.14018
2943.323, 66.17156
2943.805, 66.11485
2944.287, 65.96278
2944.769, 65.71152
2945.251, 65.36134
2945.734, 64.91685
2946.216, 64.38652
2946.698, 63.78164
2947.18, 63.11581
2947.662, 62.40413
2948.144, 61.66322
2948.626, 60.91125
2949.108, 60.16758
2949.591, 59.45163
2950.073, 58.78136
2950.555, 58.17125
2951.037, 57.63067
2951.519, 57.16312
2952.001, 56.76706
2952.483, 56.43761
2952.965, 56.16921
2953.448, 55.95853
2953.929, 55.80568
2954.412, 55.71538
2954.894, 55.69548
2955.376, 55.75562
2955.858, 55.90474
2956.34, 56.14941
2956.822, 56.49268
2957.304, 56.93361
2957.786, 57.46765
2958.269, 58.08752
2958.751, 58.78379
2959.233, 59.54596
2959.715, 60.36304
2960.197, 61.22454
2960.679, 62.12051
2961.161, 63.04229
2961.643, 63.98252
2962.125, 64.93527
2962.608, 65.89555
2963.09, 66.85895
2963.572, 67.82094
2964.054, 68.7765
2964.536, 69.72003
2965.018, 70.64543
2965.5, 71.54681
2965.982, 72.41915
2966.465, 73.25947
2966.947, 74.06721
2967.429, 74.84428
2967.911, 75.59486
2968.393, 76.32407
2968.875, 77.03677
2969.357, 77.73559
2969.839, 78.42034
2970.322, 79.08704
2970.804, 79.72906
2971.286, 80.33797
2971.768, 80.90565
2972.25, 81.42609
2972.732, 81.89674
2973.214, 82.31872
2973.696, 82.69693
2974.178, 83.03864
2974.661, 83.352
2975.143, 83.64491
2975.625, 83.92388
2976.107, 84.19339
2976.589, 84.45547
2977.071, 84.71008
2977.553, 84.95487
2978.035, 85.18604
2978.518, 85.39923
2979.0, 85.58994
2979.482, 85.75512
2979.964, 85.89359
2980.446, 86.00623
2980.928, 86.09599
2981.41, 86.16711
2981.892, 86.22439
2982.375, 86.27254
2982.856, 86.31561
2983.339, 86.35709
2983.821, 86.39992
2984.303, 86.4465
2984.785, 86.49867
2985.267, 86.55767
2985.749, 86.62394
2986.231, 86.69731
2986.713, 86.7769
2987.196, 86.86214
2987.678, 86.95284
2988.16, 87.04912
2988.642, 87.15135
2989.124, 87.25945
2989.606, 87.37253
2990.088, 87.48864
2990.57, 87.60521
2991.052, 87.71986
2991.535, 87.83183
2992.017, 87.94182
2992.499, 88.05253
2992.981, 88.16747
2993.463, 88.28987
2993.945, 88.42129
2994.427, 88.56063
2994.909, 88.70457
2995.392, 88.84795
2995.874, 88.98515
2996.356, 89.11145
2996.838, 89.22379
2997.32, 89.32134
2997.802, 89.40533
2998.284, 89.47868
2998.766, 89.54575
2999.249, 89.61156
2999.731, 89.68161
3000.213, 89.76142
3000.695, 89.85589
3001.177, 89.96842
3001.659, 90.10088
3002.141, 90.25243
3002.623, 90.41987
3003.105, 90.59737
3003.588, 90.77717
3004.07, 90.95006
3004.552, 91.10629
3005.034, 91.23715
3005.516, 91.33595
3005.998, 91.39955
3006.48, 91.4291
3006.962, 91.43025
3007.445, 91.41219
3007.927, 91.38624
3008.409, 91.36376
3008.891, 91.35435
3009.373, 91.36417
3009.855, 91.39582
3010.337, 91.44852
3010.819, 91.51922
3011.302, 91.60316
3011.783, 91.69552
3012.266, 91.79127
3012.748, 91.88618
3013.23, 91.97661
3013.712, 92.05981
3014.194, 92.13411
3014.676, 92.19912
3015.158, 92.25475
3015.64, 92.3016
3016.123, 92.34014
3016.605, 92.37052
3017.087, 92.39352
3017.569, 92.41096
3018.051, 92.42641
3018.533, 92.44524
3019.015, 92.47369
3019.497, 92.5168
3019.979, 92.57651
3020.462, 92.65052
3020.944, 92.73216
3021.426, 92.81255
3021.908, 92.88351
3022.39, 92.94003
3022.872, 92.9817
3023.354, 93.01189
3023.836, 93.03501
3024.319, 93.05353
3024.801, 93.0657
3025.283, 93.06596
3025.765, 93.04752
3026.247, 93.00665
3026.729, 92.94598
3027.211, 92.87597
3027.693, 92.81303
3028.176, 92.77446
3028.658, 92.77274
3029.14, 92.81089
3029.622, 92.8811
3030.104, 92.96712
3030.586, 93.04934
3031.068, 93.11149
3031.55, 93.14563
3032.032, 93.15411
3032.515, 93.14851
3032.997, 93.14516
3033.479, 93.16011
3033.961, 93.20542
3034.443, 93.28603
3034.925, 93.40048
3035.407, 93.54193
3035.889, 93.70078
3036.372, 93.86642
3036.854, 94.02843
3037.336, 94.17805
3037.818, 94.30801
3038.3, 94.41333
3038.782, 94.49174
3039.264, 94.54414
3039.746, 94.57448
3040.229, 94.58895
3040.711, 94.59454
3041.193, 94.59797
3041.675, 94.60389
3042.157, 94.61469
3042.639, 94.63025
3043.121, 94.6492
3043.603, 94.66957
3044.085, 94.69033
3044.568, 94.71151
3045.05, 94.73464
3045.532, 94.76204
3046.014, 94.79519
3046.496, 94.83434
3046.978, 94.87684
3047.46, 94.9175
3047.942, 94.94906
3048.425, 94.96374
3048.906, 94.95535
3049.389, 94.92159
3049.871, 94.86464
3050.353, 94.79173
3050.835, 94.71357
3051.317, 94.64185
3051.799, 94.58703
3052.281, 94.55585
3052.763, 94.55073
3053.246, 94.57001
3053.728, 94.60863
3054.21, 94.65997
3054.692, 94.71661
3055.174, 94.77166
3055.656, 94.81876
3056.138, 94.85279
3056.62, 94.87034
3057.103, 94.8703
3057.585, 94.85438
3058.067, 94.82727
3058.549, 94.79555
3059.031, 94.76616
3059.513, 94.74487
3059.995, 94.73454
3060.477, 94.73463
3060.959, 94.74229
3061.442, 94.75293
3061.924, 94.76258
3062.406, 94.76818
3062.888, 94.76818
3063.37, 94.7617
3063.852, 94.74787
3064.334, 94.72561
3064.816, 94.69426
3065.299, 94.65467
3065.781, 94.6107
3066.263, 94.56945
3066.745, 94.54075
3067.227, 94.53484
3067.709, 94.55911
3068.191, 94.61603
3068.673, 94.70126
3069.156, 94.80438
3069.638, 94.91076
3070.12, 95.00557
3070.602, 95.07672
3071.084, 95.11832
3071.566, 95.13151
3072.048, 95.12431
3072.53, 95.1094
3073.012, 95.10129
3073.495, 95.11311
3073.977, 95.154
3074.459, 95.22691
3074.941, 95.32835
3075.423, 95.4493
3075.905, 95.57738
3076.387, 95.69984
3076.869, 95.80658
3077.352, 95.89223
3077.833, 95.95687
3078.316, 96.00487
3078.798, 96.04324
3079.28, 96.07896
3079.762, 96.1176
3080.244, 96.16235
3080.726, 96.2147
3081.208, 96.27535
3081.69, 96.34512
3082.173, 96.42503
3082.655, 96.51572
3083.137, 96.61611
3083.619, 96.72272
3084.101, 96.82938
3084.583, 96.92832
3085.065, 97.01243
3085.547, 97.07647
3086.03, 97.11937
3086.512, 97.14362
3086.994, 97.15508
3087.476, 97.16079
3087.958, 97.16761
3088.44, 97.18067
3088.922, 97.20264
3089.404, 97.23351
3089.886, 97.27013
3090.369, 97.30704
3090.851, 97.33637
3091.333, 97.34956
3091.815, 97.33919
3092.297, 97.30145
3092.779, 97.23823
3093.261, 97.15763
3093.743, 97.07352
3094.226, 97.00143
3094.708, 96.95497
3095.19, 96.94131
3095.672, 96.95966
3096.154, 97.00105
3096.636, 97.05183
3097.118, 97.09823
3097.6, 97.13039
3098.083, 97.14497
3098.565, 97.14509
3099.047, 97.13769
3099.529, 97.13034
3100.011, 97.12804
3100.493, 97.13225
3100.975, 97.14127
3101.457, 97.15241
3101.939, 97.16383
3102.422, 97.17538
3102.904, 97.18878
3103.386, 97.2064
3103.868, 97.22951
3104.35, 97.25799
3104.832, 97.29056
3105.314, 97.32591
3105.796, 97.36315
3106.279, 97.40234
3106.76, 97.44374
3107.243, 97.48592
3107.725, 97.52522
3108.207, 97.55605
3108.689, 97.57223
3109.171, 97.56987
3109.653, 97.54951
3110.135, 97.51682
3110.617, 97.48154
3111.1, 97.4537
3111.582, 97.44064
3112.064, 97.44417
3112.546, 97.46046
3113.028, 97.48199
3113.51, 97.50174
3113.992, 97.51651
3114.474, 97.529
3114.957, 97.54701
3115.439, 97.5802
3115.921, 97.63615
3116.403, 97.7167
3116.885, 97.81658
3117.367, 97.92446
3117.849, 98.02637
3118.331, 98.10921
3118.813, 98.16441
3119.296, 98.18925
3119.778, 98.18667
3120.26, 98.1635
3120.742, 98.1283
3121.224, 98.08942
3121.706, 98.05367
3122.188, 98.02589
3122.67, 98.0088
3123.153, 98.00286
3123.635, 98.00658
3124.117, 98.01694
3124.599, 98.0303
3125.081, 98.0433
3125.563, 98.05363
3126.045, 98.06094
3126.527, 98.06603
3127.01, 98.07014
3127.492, 98.07417
3127.974, 98.07774
3128.456, 98.07959
3128.938, 98.07852
3129.42, 98.07477
3129.902, 98.07089
3130.384, 98.07137
3130.866, 98.0807
3131.349, 98.10172
3131.831, 98.13346
3132.313, 98.17049
3132.795, 98.2041
3133.277, 98.22527
3133.759, 98.2276
3134.241, 98.20956
3134.723, 98.17535
3135.206, 98.13319
3135.688, 98.09296
3136.17, 98.06341
3136.652, 98.04958
3137.134, 98.05309
3137.616, 98.07265
3138.098, 98.10558
3138.58, 98.14912
3139.063, 98.20078
3139.544, 98.25827
3140.027, 98.31831
3140.509, 98.37651
3140.991, 98.42711
3141.473, 98.46455
3141.955, 98.48507
3142.437, 98.48762
3142.919, 98.47483
3143.401, 98.45251
3143.884, 98.42835
3144.366, 98.4106
3144.848, 98.40604
3145.33, 98.41928
3145.812, 98.45168
3146.294, 98.50055
3146.776, 98.55974
3147.258, 98.6198
3147.74, 98.66949
3148.223, 98.6982
3148.705, 98.6986
3149.187, 98.66924
3149.669, 98.61556
3150.151, 98.54983
3150.633, 98.48787
3151.115, 98.44514
3151.597, 98.43254
3152.08, 98.45291
3152.562, 98.50044
3153.044, 98.56252
3153.526, 98.6236
3154.008, 98.66995
3154.49, 98.69353
3154.972, 98.69372
3155.454, 98.67641
3155.937, 98.65133
3156.419, 98.62759
3156.901, 98.61026
3157.383, 98.59879
3157.865, 98.58733
3158.347, 98.56763
3158.829, 98.53294
3159.311, 98.48206
3159.793, 98.42053
3160.276, 98.36023
3160.758, 98.31593
3161.24, 98.30063
3161.722, 98.32024
3162.204, 98.37128
3162.686, 98.44073
3163.168, 98.50998
3163.65, 98.56026
3164.133, 98.57932
3164.615, 98.56495
3165.097, 98.52564
3165.579, 98.47692
3166.061, 98.43561
3166.543, 98.41324
3167.025, 98.41257
3167.507, 98.42741
3167.99, 98.44614
3168.471, 98.45753
3168.954, 98.4561
3169.436, 98.4441
3169.918, 98.43108
3170.4, 98.42876
3170.882, 98.4465
3171.364, 98.48579
3171.846, 98.54006
3172.328, 98.5965
3172.811, 98.64092
3173.293, 98.66267
3173.775, 98.65855
3174.257, 98.63323
3174.739, 98.59682
3175.221, 98.56116
3175.703, 98.53537
3176.185, 98.52405
3176.667, 98.52667
3177.15, 98.53934
3177.632, 98.55724
3178.114, 98.57695
3178.596, 98.5972
3179.078, 98.61848
3179.56, 98.64168
3180.042, 98.66676
3180.524, 98.6915
3181.007, 98.7113
3181.489, 98.72077
3181.971, 98.71512
3182.453, 98.69259
3182.935, 98.65567
3183.417, 98.61159
3183.899, 98.57152
3184.381, 98.5479
3184.864, 98.55083
3185.346, 98.58533
3185.828, 98.64844
3186.31, 98.72952
3186.792, 98.81199
3187.274, 98.87823
3187.756, 98.91347
3188.238, 98.91026
3188.72, 98.87021
3189.203, 98.80299
3189.685, 98.72314
3190.167, 98.64606
3190.649, 98.58452
3191.131, 98.54607
3191.613, 98.53307
3192.095, 98.54296
3192.577, 98.56978
3193.06, 98.60512
3193.542, 98.63942
3194.024, 98.66261
3194.506, 98.66572
3194.988, 98.64323
3195.47, 98.59458
3195.952, 98.52612
3196.434, 98.44952
3196.917, 98.37962
3197.398, 98.32994
3197.881, 98.30863
3198.363, 98.31631
3198.845, 98.34649
3199.327, 98.38831
3199.809, 98.43169
3200.291, 98.46999
3200.773, 98.50248
3201.255, 98.53275
3201.738, 98.56546
3202.22, 98.60332
3202.702, 98.64469
3203.184, 98.6843
3203.666, 98.71596
3204.148, 98.73553
3204.63, 98.74335
3205.112, 98.7442
3205.594, 98.74506
3206.077, 98.75156
3206.559, 98.76573
3207.041, 98.78484
3207.523, 98.80312
3208.005, 98.81489
3208.487, 98.81697
3208.969, 98.81046
3209.451, 98.80007
3209.934, 98.7913
3210.416, 98.78796
3210.898, 98.79037
3211.38, 98.79508
3211.862, 98.7967
3212.344, 98.79034
3212.826, 98.77342
3213.308, 98.74677
3213.791, 98.71372
3214.273, 98.6787
3214.755, 98.6461
3215.237, 98.61882
3215.719, 98.59879
3216.201, 98.58699
3216.683, 98.58403
3217.165, 98.59002
3217.647, 98.60464
3218.13, 98.62622
3218.612, 98.65239
3219.094, 98.6807
3219.576, 98.70906
3220.058, 98.7377
3220.54, 98.76808
3221.022, 98.80311
3221.504, 98.84503
3221.987, 98.89381
3222.469, 98.94658
3222.951, 98.99713
3223.433, 99.03757
3223.915, 99.05986
3224.397, 99.05796
3224.879, 99.02942
3225.361, 98.97598
3225.844, 98.90353
3226.325, 98.82122
3226.808, 98.73956
3227.29, 98.66895
3227.772, 98.6174
3228.254, 98.58891
3228.736, 98.58242
3229.218, 98.5927
3229.7, 98.61148
3230.182, 98.63036
3230.665, 98.64356
3231.147, 98.64973
3231.629, 98.65215
3232.111, 98.65714
3232.593, 98.67144
3233.075, 98.70002
3233.557, 98.74403
3234.039, 98.80158
3234.521, 98.86862
3235.004, 98.94106
3235.486, 99.01604
3235.968, 99.09171
3236.45, 99.16626
3236.932, 99.2364
3237.414, 99.29721
3237.896, 99.34277
3238.378, 99.36849
3238.861, 99.37298
3239.343, 99.35942
3239.825, 99.33445
3240.307, 99.30571
3240.789, 99.27852
3241.271, 99.25364
3241.753, 99.22777
3242.235, 99.19587
3242.718, 99.15462
3243.2, 99.10587
3243.682, 99.05754
3244.164, 99.02111
3244.646, 99.00772
3245.128, 99.02287
3245.61, 99.0639
3246.092, 99.11982
3246.574, 99.17413
3247.057, 99.21052
3247.539, 99.21706
3248.021, 99.18993
3248.503, 99.13314
3248.985, 99.05645
3249.467, 98.97223
3249.949, 98.89194
3250.431, 98.82452
3250.914, 98.77645
3251.396, 98.7516
3251.878, 98.75228
3252.36, 98.77837
3252.842, 98.82714
3253.324, 98.89225
3253.806, 98.96369
3254.288, 99.0286
3254.771, 99.07397
3255.252, 99.08901
3255.735, 99.06788
3256.217, 99.01105
3256.699, 98.92514
3257.181, 98.82133
3257.663, 98.71332
3258.145, 98.61362
3258.627, 98.53196
3259.109, 98.47304
3259.592, 98.43648
3260.074, 98.4175
3260.556, 98.40919
3261.038, 98.40503
3261.52, 98.40184
3262.002, 98.40028
3262.484, 98.40499
3262.966, 98.42197
3263.448, 98.4555
3263.931, 98.50581
3264.413, 98.56771
3264.895, 98.63223
3265.377, 98.6901
3265.859, 98.7353
3266.341, 98.76833
3266.823, 98.79568
3267.305, 98.82703
3267.788, 98.87013
3268.27, 98.92686
3268.752, 98.99043
3269.234, 99.0474
3269.716, 99.08149
3270.198, 99.08026
3270.68, 99.03975
3271.162, 98.96684
3271.645, 98.87737
3272.127, 98.79193
3272.609, 98.72965
3273.091, 98.70435
3273.573, 98.72136
3274.055, 98.77844
3274.537, 98.86747
3275.019, 98.97667
3275.501, 99.09321
3275.984, 99.20446
3276.466, 99.29852
3276.948, 99.36588
3277.43, 99.39999
3277.912, 99.39915
3278.394, 99.36697
3278.876, 99.31176
3279.358, 99.24495
3279.841, 99.17795
3280.323, 99.11944
3280.805, 99.07359
3281.287, 99.04057
3281.769, 99.01788
3282.251, 99.00252
3282.733, 98.993
3283.215, 98.98931
3283.698, 98.99272
3284.179, 99.00394
3284.662, 99.02212
3285.144, 99.04473
3285.626, 99.0682
3286.108, 99.08954
3286.59, 99.10742
3287.072, 99.12184
3287.554, 99.13348
3288.036, 99.14288
3288.519, 99.14874
3289.001, 99.14837
3289.483, 99.13852
3289.965, 99.11639
3290.447, 99.0815
3290.929, 99.03481
3291.411, 98.97865
3291.893, 98.91525
3292.375, 98.84599
3292.858, 98.77106
3293.34, 98.69098
3293.822, 98.60765
3294.304, 98.52583
3294.786, 98.45242
3295.268, 98.39565
3295.75, 98.36204
3296.232, 98.35464
3296.715, 98.3717
3297.197, 98.40751
3297.679, 98.45348
3298.161, 98.50116
3298.643, 98.54398
3299.125, 98.5788
3299.607, 98.60555
3300.089, 98.62681
3300.572, 98.64642
3301.054, 98.66865
3301.536, 98.69748
3302.018, 98.73611
3302.5, 98.78574
3302.982, 98.84531
3303.464, 98.91026
3303.946, 98.97338
3304.428, 99.02528
3304.911, 99.05767
3305.393, 99.06577
3305.875, 99.05106
3306.357, 99.02153
3306.839, 98.99047
3307.321, 98.97216
3307.803, 98.97823
3308.285, 99.01292
3308.768, 99.0719
3309.25, 99.14285
3309.732, 99.2095
3310.214, 99.25644
3310.696, 99.27384
3311.178, 99.26077
3311.66, 99.2249
3312.142, 99.17973
3312.625, 99.14011
3313.106, 99.11716
3313.589, 99.11462
3314.071, 99.12805
3314.553, 99.14618
3315.035, 99.15536
3315.517, 99.14424
3315.999, 99.10816
3316.481, 99.05103
3316.963, 98.98463
3317.446, 98.92502
3317.928, 98.88708
3318.41, 98.88023
3318.892, 98.90508
3319.374, 98.95406
3319.856, 99.01356
3320.338, 99.06872
3320.82, 99.1077
3321.302, 99.12498
3321.785, 99.1211
3322.267, 99.10117
3322.749, 99.07145
3323.231, 99.03668
3323.713, 98.99849
3324.195, 98.95692
3324.677, 98.91181
3325.159, 98.86552
3325.642, 98.82388
3326.124, 98.79537
3326.606, 98.78866
3327.088, 98.80988
3327.57, 98.85961
3328.052, 98.93324
3328.534, 99.02103
3329.016, 99.1116
3329.499, 99.19389
3329.981, 99.25974
3330.463, 99.30401
3330.945, 99.32485
3331.427, 99.32247
3331.909, 99.29931
3332.391, 99.25977
3332.873, 99.21062
3333.355, 99.16128
3333.838, 99.12128
3334.32, 99.09874
3334.802, 99.09694
3335.284, 99.11195
3335.766, 99.13309
3336.248, 99.1456
3336.73, 99.13508
3337.212, 99.09283
3337.695, 99.01931
3338.177, 98.92462
3338.659, 98.82574
3339.141, 98.74088
3339.623, 98.68417
3340.105, 98.66161
3340.587, 98.67036
3341.069, 98.70097
3341.552, 98.74155
3342.033, 98.78188
3342.516, 98.8163
3342.998, 98.84345
3343.48, 98.86509
3343.962, 98.883
3344.444, 98.89725
3344.926, 98.90549
3345.408, 98.90448
3345.89, 98.89153
3346.373, 98.86591
3346.855, 98.82936
3347.337, 98.78474
3347.819, 98.7347
3348.301, 98.68004
3348.783, 98.6202
3349.265, 98.55448
3349.747, 98.48419
3350.229, 98.41486
3350.712, 98.35561
3351.194, 98.31866
3351.676, 98.31451
3352.158, 98.34937
3352.64, 98.42157
3353.122, 98.5212
3353.604, 98.63181
3354.086, 98.73454
3354.569, 98.81231
3355.051, 98.85481
3355.533, 98.85983
3356.015, 98.8345
3356.497, 98.79223
3356.979, 98.74925
3357.461, 98.72061
3357.943, 98.71652
3358.426, 98.74018
3358.908, 98.78778
3359.39, 98.84966
3359.872, 98.91396
3360.354, 98.96931
3360.836, 99.00816
3361.318, 99.02834
3361.8, 99.03243
3362.282, 99.02562
3362.765, 99.01312
3363.247, 98.99727
3363.729, 98.97681
3364.211, 98.94794
3364.693, 98.90691
3365.175, 98.85265
3365.657, 98.78923
3366.139, 98.7254
3366.622, 98.67258
3367.104, 98.64076
3367.586, 98.63558
3368.068, 98.6558
3368.55, 98.69441
3369.032, 98.74086
3369.514, 98.7852
3369.996, 98.82095
3370.479, 98.84695
3370.961, 98.86674
3371.443, 98.88564
3371.925, 98.9081
3372.407, 98.93519
3372.889, 98.96318
3373.371, 98.98483
3373.853, 98.99094
3374.335, 98.97286
3374.818, 98.92436
3375.3, 98.84424
3375.782, 98.73563
3376.264, 98.60705
3376.746, 98.47074
3377.228, 98.341
3377.71, 98.23102
3378.192, 98.15089
3378.675, 98.10523
3379.156, 98.09228
3379.639, 98.10536
3380.121, 98.1357
3380.603, 98.17561
3381.085, 98.22128
3381.567, 98.27272
3382.049, 98.33208
3382.531, 98.40041
3383.013, 98.47388
3383.496, 98.54285
3383.978, 98.59351
3384.46, 98.61274
3384.942, 98.59341
3385.424, 98.53817
3385.906, 98.46004
3386.388, 98.37835
3386.87, 98.31269
3387.353, 98.27574
3387.835, 98.26972
3388.317, 98.28603
3388.799, 98.30941
3389.281, 98.32386
3389.763, 98.31872
3390.245, 98.29081
3390.727, 98.24498
3391.209, 98.19006
3391.692, 98.13508
3392.174, 98.08614
3392.656, 98.04626
3393.138, 98.01604
3393.62, 97.99667
3394.102, 97.99046
3394.584, 98.00136
3395.066, 98.03229
3395.549, 98.08288
3396.031, 98.14782
3396.513, 98.21719
3396.995, 98.27855
3397.477, 98.32043
3397.959, 98.33557
3398.441, 98.32278
3398.923, 98.28619
3399.406, 98.23384
3399.888, 98.175
3400.37, 98.11834
3400.852, 98.07042
3401.334, 98.03532
3401.816, 98.01457
3402.298, 98.00728
3402.78, 98.01003
3403.262, 98.01681
3403.745, 98.02006
3404.227, 98.01246
3404.709, 97.98857
3405.191, 97.94714
3405.673, 97.89171
3406.155, 97.83043
3406.637, 97.77378
3407.119, 97.73226
3407.602, 97.71291
3408.083, 97.71876
3408.566, 97.74735
3409.048, 97.7927
3409.53, 97.84585
3410.012, 97.89764
3410.494, 97.94013
3410.976, 97.96808
3411.458, 97.97998
3411.94, 97.97813
3412.423, 97.96771
3412.905, 97.9558
3413.387, 97.94851
3413.869, 97.94938
3414.351, 97.95674
3414.833, 97.96501
3415.315, 97.9646
3415.797, 97.94618
3416.28, 97.90285
3416.762, 97.8334
3417.244, 97.74266
3417.726, 97.64054
3418.208, 97.53956
3418.69, 97.45216
3419.172, 97.38843
3419.654, 97.35501
3420.136, 97.35516
3420.619, 97.3888
3421.101, 97.45247
3421.583, 97.53913
3422.065, 97.63849
3422.547, 97.73689
3423.029, 97.82018
3423.511, 97.876
3423.993, 97.89711
3424.476, 97.88367
3424.958, 97.8432
3425.44, 97.78805
3425.922, 97.73182
3426.404, 97.68504
3426.886, 97.65247
3427.368, 97.63343
3427.85, 97.62235
3428.333, 97.61326
3428.815, 97.60102
3429.297, 97.58392
3429.779, 97.56319
3430.261, 97.54169
3430.743, 97.52232
3431.225, 97.50698
3431.707, 97.4958
3432.189, 97.48741
3432.672, 97.47868
3433.154, 97.46493
3433.636, 97.44035
3434.118, 97.39912
3434.6, 97.33667
3435.082, 97.25253
3435.564, 97.15222
3436.046, 97.04839
3436.529, 96.95863
3437.01, 96.90161
3437.493, 96.89213
3437.975, 96.93592
3438.457, 97.02757
3438.939, 97.15077
3439.421, 97.28225
3439.903, 97.39732
3440.385, 97.47484
3440.867, 97.50122
3441.35, 97.47195
3441.832, 97.39032
3442.314, 97.26621
3442.796, 97.11404
3443.278, 96.95065
3443.76, 96.7936
3444.242, 96.65945
3444.724, 96.56049
3445.207, 96.50229
3445.689, 96.48273
3446.171, 96.49225
3446.653, 96.51746
3447.135, 96.54597
3447.617, 96.57076
3448.099, 96.59247
3448.581, 96.61826
3449.063, 96.65733
3449.546, 96.71565
3450.028, 96.79121
3450.51, 96.87367
3450.992, 96.94683
3451.474, 96.99515
3451.956, 97.00887
3452.438, 96.98817
3452.92, 96.94242
3453.403, 96.88624
3453.885, 96.83372
3454.367, 96.79381
3454.849, 96.76768
3455.331, 96.75082
3455.813, 96.73553
3456.295, 96.71529
3456.777, 96.68702
3457.26, 96.65139
3457.742, 96.61111
3458.224, 96.56912
3458.706, 96.52766
3459.188, 96.4884
3459.67, 96.45344
3460.152, 96.42684
3460.634, 96.41428
3461.116, 96.42136
3461.599, 96.4516
3462.081, 96.50352
3462.563, 96.57041
3463.045, 96.64101
3463.527, 96.70236
3464.009, 96.74289
3464.491, 96.75569
3464.973, 96.73942
3465.456, 96.69826
3465.938, 96.64112
3466.42, 96.57957
3466.902, 96.52622
3467.384, 96.49325
3467.866, 96.49039
3468.348, 96.52278
3468.83, 96.58932
3469.313, 96.68085
3469.794, 96.78199
3470.277, 96.87338
3470.759, 96.93653
3471.241, 96.95908
3471.723, 96.93921
3472.205, 96.88631
3472.687, 96.8187
3473.169, 96.75782
3473.651, 96.72295
3474.134, 96.72414
3474.616, 96.76099
3475.098, 96.82179
3475.58, 96.88787
3476.062, 96.93861
3476.544, 96.95662
3477.026, 96.93196
3477.508, 96.8642
3477.99, 96.76218
3478.473, 96.64161
3478.955, 96.52233
3479.437, 96.42461
3479.919, 96.36568
3480.401, 96.3574
3480.883, 96.40424
3481.365, 96.50274
3481.847, 96.64139
3482.33, 96.80207
3482.812, 96.96192
3483.294, 97.0967
3483.776, 97.18468
3484.258, 97.20992
3484.74, 97.16632
3485.222, 97.06013
3485.704, 96.90882
3486.187, 96.73974
3486.669, 96.58434
3487.151, 96.47201
3487.633, 96.42348
3488.115, 96.44638
3488.597, 96.53342
3489.079, 96.6654
3489.561, 96.81528
3490.043, 96.95514
3490.526, 97.06224
3491.008, 97.12267
3491.49, 97.13195
3491.972, 97.09402
3492.454, 97.01847
3492.936, 96.91801
3493.418, 96.80632
3493.9, 96.69756
3494.383, 96.60469
3494.865, 96.53851
3495.347, 96.50553
3495.829, 96.50607
3496.311, 96.53343
3496.793, 96.57511
3497.275, 96.61572
3497.757, 96.64172
3498.24, 96.64499
3498.721, 96.6255
3499.204, 96.59068
3499.686, 96.55287
3500.168, 96.52567
3500.65, 96.5209
3501.132, 96.54556
3501.614, 96.603
3502.096, 96.69182
3502.578, 96.80772
3503.061, 96.94289
3503.543, 97.0863
3504.025, 97.22466
3504.507, 97.34398
3504.989, 97.43229
3505.471, 97.48364
3505.953, 97.49974
3506.435, 97.48997
3506.917, 97.46866
3507.4, 97.44978
3507.882, 97.44307
3508.364, 97.45105
3508.846, 97.46939
3509.328, 97.49034
3509.81, 97.50649
3510.292, 97.51405
3510.774, 97.51308
3511.257, 97.50597
3511.739, 97.49438
3512.221, 97.47704
3512.703, 97.45036
3513.185, 97.41131
3513.667, 97.36035
3514.149, 97.30406
3514.631, 97.25433
3515.114, 97.22338
3515.596, 97.21886
3516.078, 97.23885
3516.56, 97.27112
3517.042, 97.29659
3517.524, 97.29656
3518.006, 97.2597
3518.488, 97.18674
3518.97, 97.09019
3519.453, 96.98942
3519.935, 96.90381
3520.417, 96.84628
3520.899, 96.82124
3521.381, 96.82504
3521.863, 96.85076
3522.345, 96.89189
3522.827, 96.94456
3523.31, 97.00697
3523.792, 97.07659
3524.274, 97.14689
3524.756, 97.20765
3525.238, 97.24668
3525.72, 97.25475
3526.202, 97.22932
3526.684, 97.17664
3527.167, 97.10956
3527.648, 97.0425
3528.131, 96.9863
3528.613, 96.94436
3529.095, 96.91325
3529.577, 96.88651
3530.059, 96.85927
3530.541, 96.83283
3531.023, 96.81485
3531.505, 96.81618
3531.988, 96.84528
3532.47, 96.90318
3532.952, 96.98147
3533.434, 97.06472
3533.916, 97.13552
3534.398, 97.18096
3534.88, 97.19707
3535.362, 97.1897
3535.844, 97.17042
3536.327, 97.15173
3536.809, 97.14106
3537.291, 97.13935
3537.773, 97.14143
3538.255, 97.14049
3538.737, 97.13262
3539.219, 97.12037
3539.701, 97.11178
3540.184, 97.11845
3540.666, 97.15013
3541.148, 97.21046
3541.63, 97.29479
3542.112, 97.39124
3542.594, 97.48305
3543.076, 97.55396
3543.558, 97.59138
3544.041, 97.58951
3544.523, 97.54965
3545.005, 97.47958
3545.487, 97.39175
3545.969, 97.30193
3546.451, 97.22701
3546.933, 97.18376
3547.415, 97.18515
3547.897, 97.23817
3548.38, 97.34018
3548.862, 97.4782
3549.344, 97.62901
3549.826, 97.7634
3550.308, 97.85307
3550.79, 97.87847
3551.272, 97.83514
3551.754, 97.73659
3552.237, 97.61144
3552.719, 97.49593
3553.201, 97.42324
3553.683, 97.41386
3554.165, 97.46947
3554.647, 97.57259
3555.129, 97.69151
3555.611, 97.79087
3556.094, 97.84131
3556.575, 97.82825
3557.058, 97.75474
3557.54, 97.63902
3558.022, 97.50716
3558.504, 97.38467
3558.986, 97.28872
3559.468, 97.22477
3559.95, 97.18661
3560.432, 97.16106
3560.915, 97.13332
3561.397, 97.09274
3561.879, 97.03607
3562.361, 96.96825
3562.843, 96.90075
3563.325, 96.84805
3563.807, 96.82381
3564.289, 96.83761
3564.771, 96.89214
3565.254, 96.98237
3565.736, 97.09634
3566.218, 97.21691
3566.7, 97.32558
3567.182, 97.40626
3567.664, 97.44951
3568.146, 97.45505
3568.628, 97.43159
3569.111, 97.39512
3569.593, 97.36338
3570.075, 97.35098
3570.557, 97.36455
3571.039, 97.40146
3571.521, 97.45026
3572.003, 97.49594
3572.485, 97.5251
3572.968, 97.53106
3573.45, 97.51684
3573.932, 97.49431
3574.414, 97.48027
3574.896, 97.4915
3575.378, 97.53888
3575.86, 97.62433
3576.342, 97.73967
3576.824, 97.86935
3577.307, 97.99387
3577.789, 98.09467
3578.271, 98.15746
3578.753, 98.17505
3579.235, 98.14711
3579.717, 98.07981
3580.199, 97.98394
3580.681, 97.8731
3581.164, 97.76154
3581.646, 97.66294
3582.128, 97.58806
3582.61, 97.54411
3583.092, 97.5331
3583.574, 97.55167
3584.056, 97.59218
3584.538, 97.64389
3585.021, 97.69621
3585.502, 97.74118
3585.985, 97.77525
3586.467, 97.79991
3586.949, 97.81995
3587.431, 97.84125
3587.913, 97.86801
3588.395, 97.9006
3588.877, 97.93594
3589.359, 97.96947
3589.842, 97.998
3590.324, 98.02179
3590.806, 98.04523
3591.288, 98.07561
3591.77, 98.12005
3592.252, 98.1824
3592.734, 98.26149
3593.216, 98.35081
3593.698, 98.44032
3594.181, 98.51976
3594.663, 98.58201
3595.145, 98.62458
3595.627, 98.65004
3596.109, 98.66393
3596.591, 98.6721
3597.073, 98.67871
3597.555, 98.68446
3598.038, 98.6884
3598.52, 98.68819
3599.002, 98.68294
3599.484, 98.67397
3599.966, 98.66471
3600.448, 98.65879
3600.93, 98.659
3601.412, 98.66413
3601.895, 98.66988
3602.377, 98.66845
3602.859, 98.65134
3603.341, 98.61254
3603.823, 98.55037
3604.305, 98.46974
3604.787, 98.38128
3605.269, 98.29907
3605.751, 98.2377
3606.234, 98.20711
3606.716, 98.21002
3607.198, 98.24026
3607.68, 98.28362
3608.162, 98.32247
3608.644, 98.34063
3609.126, 98.3289
3609.608, 98.28861
3610.091, 98.23079
3610.573, 98.17237
3611.055, 98.12951
3611.537, 98.11195
3612.019, 98.11896
3612.501, 98.14032
3612.983, 98.16056
3613.465, 98.16611
3613.948, 98.15069
3614.429, 98.11935
3614.912, 98.08586
3615.394, 98.06806
3615.876, 98.08008
3616.358, 98.1269
3616.84, 98.20155
3617.322, 98.28774
3617.804, 98.3649
3618.286, 98.41611
3618.769, 98.43343
3619.251, 98.41982
3619.733, 98.3866
3620.215, 98.34829
3620.697, 98.3165
3621.179, 98.29578
3621.661, 98.28284
3622.143, 98.26834
3622.625, 98.24206
3623.108, 98.19669
3623.59, 98.13175
3624.072, 98.05421
3624.554, 97.97674
3625.036, 97.91329
3625.518, 97.87502
3626.0, 97.86627
3626.482, 97.88293
3626.965, 97.91372
3627.447, 97.94435
3627.929, 97.96296
3628.411, 97.96552
3628.893, 97.95869
3629.375, 97.95735
3629.857, 97.97817
3630.339, 98.03297
3630.822, 98.12443
3631.304, 98.24384
3631.786, 98.37265
3632.268, 98.48777
3632.75, 98.56879
3633.232, 98.60435
3633.714, 98.5961
3634.196, 98.55788
3634.678, 98.50974
3635.161, 98.47095
3635.643, 98.45308
3636.125, 98.45781
3636.607, 98.47769
3637.089, 98.50063
3637.571, 98.51616
3638.053, 98.51858
3638.535, 98.50816
3639.018, 98.48943
3639.5, 98.46875
3639.982, 98.4504
3640.464, 98.43715
3640.946, 98.43002
3641.428, 98.43009
3641.91, 98.43923
3642.392, 98.45919
3642.875, 98.48991
3643.356, 98.52776
3643.839, 98.56555
3644.321, 98.59484
3644.803, 98.61021
3645.285, 98.61266
3645.767, 98.61149
3646.249, 98.62166
3646.731, 98.65853
3647.213, 98.73117
3647.696, 98.83585
3648.178, 98.95569
3648.66, 99.06295
3649.142, 99.12833
3649.624, 99.13017
3650.106, 99.06181
3650.588, 98.93389
3651.07, 98.77075
3651.552, 98.6031
3652.035, 98.45963
3652.517, 98.36068
3652.999, 98.31482
3653.481, 98.31818
3653.963, 98.35698
3654.445, 98.41146
3654.927, 98.46073
3655.409, 98.48676
3655.892, 98.47898
3656.374, 98.43639
3656.856, 98.36655
3657.338, 98.28365
3657.82, 98.20411
3658.302, 98.14128
3658.784, 98.10213
3659.266, 98.08514
3659.749, 98.0822
3660.231, 98.08283
3660.713, 98.07986
3661.195, 98.07391
3661.677, 98.07434
3662.159, 98.09665
3662.641, 98.15682
3663.123, 98.26435
3663.605, 98.41851
3664.088, 98.60664
3664.57, 98.80858
3665.052, 99.00143
3665.534, 99.16603
3666.016, 99.29096
3666.498, 99.37318
3666.98, 99.41592
3667.462, 99.42542
3667.945, 99.40784
3668.427, 99.3682
3668.909, 99.31084
3669.391, 99.23997
3669.873, 99.16068
3670.355, 99.07827
3670.837, 98.99583
3671.319, 98.91439
3671.802, 98.83409
3672.283, 98.75541
3672.766, 98.68154
3673.248, 98.61774
3673.73, 98.57068
3674.212, 98.5447
3674.694, 98.54029
3675.176, 98.55193
3675.658, 98.56847
3676.14, 98.57549
3676.623, 98.55893
3677.105, 98.51201
3677.587, 98.43845
3678.069, 98.35117
3678.551, 98.26711
3679.033, 98.20144
3679.515, 98.16267
3679.997, 98.15257
3680.479, 98.16876
3680.962, 98.20784
3681.444, 98.26847
3681.926, 98.35228
3682.408, 98.4602
3682.89, 98.58994
3683.372, 98.73193
3683.854, 98.87051
3684.336, 98.98746
3684.819, 99.06837
3685.301, 99.1078
3685.783, 99.11173
3686.265, 99.09493
3686.747, 99.07559
3687.229, 99.06827
3687.711, 99.07924
3688.193, 99.10578
3688.676, 99.13796
3689.158, 99.16431
3689.64, 99.17638
3690.122, 99.1712
3690.604, 99.15089
3691.086, 99.12003
3691.568, 99.08259
3692.05, 99.04022
3692.532, 98.99387
3693.015, 98.94564
3693.497, 98.90147
3693.979, 98.87005
3694.461, 98.86064
3694.943, 98.8783
3695.425, 98.92
3695.907, 98.97353
3696.389, 99.02056
3696.872, 99.04305
3697.354, 99.03043
3697.836, 98.98411
3698.318, 98.91827
3698.8, 98.85397
3699.282, 98.81216
3699.764, 98.80482
3700.246, 98.8308
3700.729, 98.87527
3701.211, 98.91594
3701.693, 98.93028
3702.175, 98.90487
3702.657, 98.83914
3703.139, 98.74616
3703.621, 98.64816
3704.103, 98.56898
3704.585, 98.52694
3705.068, 98.52983
3705.55, 98.57324
3706.032, 98.64317
3706.514, 98.72107
3706.996, 98.7901
3707.478, 98.84073
3707.96, 98.87306
3708.442, 98.89724
3708.925, 98.92919
3709.406, 98.98435
3709.889, 99.0728
3710.371, 99.19354
3710.853, 99.33454
3711.335, 99.47536
3711.817, 99.59318
3712.299, 99.67041
3712.781, 99.69999
3713.263, 99.68765
3713.746, 99.65022
3714.228, 99.60829
3714.71, 99.58038
3715.192, 99.57702
3715.674, 99.59864
3716.156, 99.63789
3716.638, 99.68358
3717.12, 99.72553
3717.603, 99.75732
3718.085, 99.77648
3718.567, 99.78277
3719.049, 99.7747
3719.531, 99.74832
3720.013, 99.69793
3720.495, 99.61929
3720.977, 99.51312
3721.459, 99.38776
3721.942, 99.25819
3722.424, 99.1423
3722.906, 99.05517
3723.388, 99.00423
3723.87, 98.98653
3724.352, 98.99072
3724.834, 99.00167
3725.316, 99.00574
3725.799, 98.99616
3726.281, 98.97492
3726.763, 98.95143
3727.245, 98.93803
3727.727, 98.94547
3728.209, 98.97923
3728.691, 99.03761
3729.173, 99.11271
3729.656, 99.19209
3730.138, 99.26117
3730.62, 99.30609
3731.102, 99.31609
3731.584, 99.28524
3732.066, 99.21484
3732.548, 99.11296
3733.03, 98.99474
3733.512, 98.87952
3733.995, 98.78729
3734.477, 98.73449
3734.959, 98.72969
3735.441, 98.77164
3735.923, 98.84853
3736.405, 98.94016
3736.887, 99.02452
3737.369, 99.08326
3737.852, 99.10773
3738.333, 99.10062
3738.816, 99.07433
3739.298, 99.04533
3739.78, 99.0285
3740.262, 99.03231
3740.744, 99.05673
3741.226, 99.09358
3741.708, 99.13124
3742.19, 99.15874
3742.673, 99.17052
3743.155, 99.16939
3743.637, 99.16636
3744.119, 99.17829
3744.601, 99.2209
3745.083, 99.29994
3745.565, 99.40611
3746.047, 99.51734
3746.53, 99.6068
3747.012, 99.65017
3747.494, 99.6335
3747.976, 99.55562
3748.458, 99.42988
3748.94, 99.28048
3749.422, 99.13591
3749.904, 99.02126
3750.386, 98.95039
3750.869, 98.92367
3751.351, 98.93032
3751.833, 98.95331
3752.315, 98.97689
3752.797, 98.99256
3753.279, 98.99996
3753.761, 99.00638
3754.243, 99.02175
3754.726, 99.05524
3755.208, 99.11062
3755.69, 99.18459
3756.172, 99.269
3756.654, 99.35206
3757.136, 99.4228
3757.618, 99.47361
3758.1, 99.50196
3758.583, 99.51087
3759.065, 99.50824
3759.547, 99.50429
3760.029, 99.50942
3760.511, 99.53112
3760.993, 99.57167
3761.475, 99.62678
3761.957, 99.68603
3762.439, 99.73502
3762.922, 99.75964
3763.404, 99.74917
3763.886, 99.70042
3764.368, 99.61851
3764.85, 99.5162
3765.332, 99.41068
3765.814, 99.31847
3766.296, 99.25149
3766.779, 99.21519
3767.26, 99.20892
3767.743, 99.22828
3768.225, 99.26781
3768.707, 99.32249
3769.189, 99.38805
3769.671, 99.46032
3770.153, 99.53387
3770.635, 99.60115
3771.117, 99.6538
3771.6, 99.68453
3772.082, 99.68977
3772.564, 99.67101
3773.046, 99.63439
3773.528, 99.58852
3774.01, 99.54198
3774.492, 99.50023
3774.974, 99.46507
3775.457, 99.43491
3775.939, 99.40667
3776.421, 99.37823
3776.903, 99.3495
3777.385, 99.32282
3777.867, 99.30203
3778.349, 99.29097
3778.831, 99.29179
3779.313, 99.30458
3779.796, 99.32667
3780.278, 99.35414
3780.76, 99.38185
3781.242, 99.4046
3781.724, 99.41849
3782.206, 99.42057
3782.688, 99.4092
3783.17, 99.38493
3783.653, 99.34988
3784.135, 99.30804
3784.617, 99.26443
3785.099, 99.22356
3785.581, 99.18797
3786.063, 99.1579
3786.545, 99.13046
3787.027, 99.1022
3787.51, 99.07013
3787.992, 99.03463
3788.474, 99.00008
3788.956, 98.97444
3789.438, 98.96763
3789.92, 98.98839
3790.402, 99.04068
3790.884, 99.12222
3791.366, 99.22272
3791.849, 99.32661
3792.331, 99.41502
3792.813, 99.47105
3793.295, 99.48373
3793.777, 99.45071
3794.259, 99.37962
3794.741, 99.28615
3795.223, 99.19054
3795.706, 99.11306
3796.188, 99.06931
3796.67, 99.06675
3797.152, 99.10355
3797.634, 99.16991
3798.116, 99.25182
3798.598, 99.33464
3799.08, 99.40636
3799.563, 99.45947
3800.044, 99.49055
3800.527, 99.50026
3801.009, 99.4921
3801.491, 99.47132
3801.973, 99.44231
3802.455, 99.40838
3802.937, 99.37116
3803.419, 99.33189
3803.901, 99.29248
3804.384, 99.25515
3804.866, 99.22195
3805.348, 99.19492
3805.83, 99.17677
3806.312, 99.1718
3806.794, 99.18517
3807.276, 99.22154
3807.758, 99.28229
3808.24, 99.36358
3808.723, 99.45593
3809.205, 99.54678
3809.687, 99.62261
3810.169, 99.6729
3810.651, 99.6927
3811.133, 99.6839
3811.615, 99.6543
3812.097, 99.61481
3812.58, 99.57575
3813.062, 99.54351
3813.544, 99.51948
3814.026, 99.50072
3814.508, 99.48293
3814.99, 99.46353
3815.472, 99.44375
3815.954, 99.42831
3816.437, 99.4232
3816.919, 99.43217
3817.401, 99.45545
3817.883, 99.48921
3818.365, 99.52769
3818.847, 99.56405
3819.329, 99.592
3819.811, 99.6067
3820.293, 99.60544
3820.776, 99.58818
3821.258, 99.55628
3821.74, 99.51247
3822.222, 99.45915
3822.704, 99.39975
3823.186, 99.3392
3823.668, 99.28348
3824.15, 99.23821
3824.633, 99.20643
3825.115, 99.18808
3825.597, 99.18067
3826.079, 99.181
3826.561, 99.18767
3827.043, 99.20222
3827.525, 99.22868
3828.007, 99.27174
3828.49, 99.33375
3828.971, 99.41215
3829.454, 99.49853
3829.936, 99.57983
3830.418, 99.64214
3830.9, 99.67486
3831.382, 99.67426
3831.864, 99.64503
3832.346, 99.59824
3832.828, 99.54786
3833.311, 99.50565
3833.793, 99.47905
3834.275, 99.46884
3834.757, 99.47175
3835.239, 99.48293
3835.721, 99.49852
3836.203, 99.51808
3836.685, 99.5434
3837.167, 99.57682
3837.65, 99.61807
3838.132, 99.66235
3838.614, 99.70053
3839.096, 99.72107
3839.578, 99.71504
3840.06, 99.67931
3840.542, 99.61863
3841.024, 99.54508
3841.507, 99.47503
3841.989, 99.42481
3842.471, 99.40631
3842.953, 99.4249
3843.435, 99.47885
3843.917, 99.56067
3844.399, 99.65903
3844.881, 99.76149
3845.364, 99.85477
3845.846, 99.92632
3846.328, 99.96458
3846.81, 99.96045
3847.292, 99.90977
3847.774, 99.81495
3848.256, 99.68668
3848.738, 99.54297
3849.22, 99.40498
3849.703, 99.29241
3850.185, 99.21783
3850.667, 99.18248
3851.149, 99.17694
3851.631, 99.18385
3852.113, 99.18462
3852.595, 99.16718
3853.077, 99.13073
3853.56, 99.08582
3854.042, 99.04877
3854.524, 99.03349
3855.006, 99.04724
3855.488, 99.08981
3855.97, 99.15492
3856.452, 99.23247
3856.934, 99.31184
3857.417, 99.38266
3857.898, 99.43685
3858.381, 99.46812
3858.863, 99.47184
3859.345, 99.44626
3859.827, 99.39317
3860.309, 99.31976
3860.791, 99.23846
3861.273, 99.1666
3861.755, 99.12126
3862.238, 99.11582
3862.72, 99.15518
3863.202, 99.23444
3863.684, 99.33982
3864.166, 99.45341
3864.648, 99.5581
3865.13, 99.64246
3865.612, 99.70313
3866.094, 99.74348
3866.577, 99.7711
3867.059, 99.79337
3867.541, 99.81444
3868.023, 99.8336
3868.505, 99.84682
3868.987, 99.84928
3869.469, 99.83865
3869.951, 99.81606
3870.434, 99.78506
3870.916, 99.74971
3871.398, 99.71233
3871.88, 99.67353
3872.362, 99.63189
3872.844, 99.58453
3873.326, 99.52848
3873.808, 99.46197
3874.291, 99.38582
3874.773, 99.30408
3875.255, 99.22292
3875.737, 99.14986
3876.219, 99.09274
3876.701, 99.05818
3877.183, 99.04955
3877.665, 99.06618
3878.147, 99.10385
3878.63, 99.1554
3879.112, 99.21259
3879.594, 99.26871
3880.076, 99.31915
3880.558, 99.36208
3881.04, 99.39696
3881.522, 99.42351
3882.004, 99.44118
3882.487, 99.44982
3882.969, 99.45004
3883.451, 99.44479
3883.933, 99.43851
3884.415, 99.43721
3884.897, 99.44576
3885.379, 99.46701
3885.861, 99.49937
3886.344, 99.53745
3886.825, 99.57348
3887.308, 99.60057
3887.79, 99.61533
3888.272, 99.61792
3888.754, 99.61007
3889.236, 99.59188
3889.718, 99.55947
3890.2, 99.50647
3890.682, 99.42625
3891.165, 99.31754
3891.647, 99.18727
3892.129, 99.05159
3892.611, 98.93274
3893.093, 98.85161
3893.575, 98.82217
3894.057, 98.84563
3894.539, 98.91079
3895.021, 98.99734
3895.504, 99.08365
3895.986, 99.15367
3896.468, 99.2019
3896.95, 99.23293
3897.432, 99.25758
3897.914, 99.28692
3898.396, 99.32663
3898.878, 99.37548
3899.361, 99.4262
3899.843, 99.46995
3900.325, 99.49994
3900.807, 99.51391
3901.289, 99.51376
3901.771, 99.50317
3902.253, 99.48457
3902.735, 99.4579
3903.218, 99.42154
3903.7, 99.3746
3904.182, 99.31971
3904.664, 99.26394
3905.146, 99.21787
3905.628, 99.19221
3906.11, 99.19472
3906.592, 99.22727
3907.074, 99.28602
3907.557, 99.36264
3908.039, 99.44725
3908.521, 99.53075
3909.003, 99.60706
3909.485, 99.672
3909.967, 99.7231
3910.449, 99.75862
3910.931, 99.7761
3911.414, 99.77402
3911.896, 99.75117
3912.378, 99.70768
3912.86, 99.64528
3913.342, 99.56623
3913.824, 99.47388
3914.306, 99.37222
3914.788, 99.26751
3915.271, 99.16906
3915.752, 99.08909
3916.235, 99.0413
3916.717, 99.03684
3917.199, 99.08044
3917.681, 99.16692
3918.163, 99.28059
3918.645, 99.39938
3919.127, 99.49972
3919.609, 99.56416
3920.092, 99.58639
3920.574, 99.57279
3921.056, 99.5395
3921.538, 99.5062
3922.02, 99.48959
3922.502, 99.49761
3922.984, 99.52779
3923.466, 99.56896
3923.948, 99.60547
3924.431, 99.62289
3924.913, 99.61191
3925.395, 99.57063
3925.877, 99.50395
3926.359, 99.42098
3926.841, 99.33241
3927.323, 99.2475
3927.805, 99.172
3928.288, 99.10714
3928.77, 99.05042
3929.252, 98.99658
3929.734, 98.93993
3930.216, 98.87737
3930.698, 98.80999
3931.18, 98.74467
3931.662, 98.69363
3932.145, 98.6719
3932.627, 98.69286
3933.109, 98.76398
3933.591, 98.88377
3934.073, 99.04037
3934.555, 99.214
3935.037, 99.38112
3935.519, 99.52024
3936.001, 99.61686
3936.484, 99.66624
3936.966, 99.67354
3937.448, 99.65127
3937.93, 99.61521
3938.412, 99.58047
3938.894, 99.55817
3939.376, 99.55341
3939.858, 99.56512
3940.341, 99.58704
3940.823, 99.60959
3941.305, 99.62238
3941.787, 99.61672
3942.269, 99.58813
3942.751, 99.53837
3943.233, 99.47506
3943.715, 99.41121
3944.198, 99.36105
3944.679, 99.33639
3945.162, 99.34274
3945.644, 99.37727
3946.126, 99.42958
3946.608, 99.48521
3947.09, 99.53024
3947.572, 99.55635
3948.054, 99.56359
3948.536, 99.55904
3949.019, 99.55298
3949.501, 99.55424
3949.983, 99.56458
3950.465, 99.5778
3950.947, 99.58136
3951.429, 99.5619
3951.911, 99.51083
3952.393, 99.42916
3952.875, 99.32787
3953.358, 99.22462
3953.84, 99.13773
3954.322, 99.07958
3954.804, 99.05197
3955.286, 99.04625
3955.768, 99.04677
3956.25, 99.03673
3956.732, 99.00494
3957.215, 98.94936
3957.697, 98.87831
3958.179, 98.80621
3958.661, 98.74972
3959.143, 98.72159
3959.625, 98.72858
3960.107, 98.76965
3960.589, 98.83865
3961.072, 98.92622
3961.554, 99.02251
3962.036, 99.11821
3962.518, 99.20468
3963.0, 99.27427
3963.482, 99.31997
3963.964, 99.33677
3964.446, 99.32326
3964.928, 99.28337
3965.411, 99.22651
3965.893, 99.16606
3966.375, 99.1165
3966.857, 99.08888
3967.339, 99.08896
3967.821, 99.11465
3968.303, 99.15812
3968.785, 99.20843
3969.268, 99.25552
3969.75, 99.29329
3970.232, 99.32065
3970.714, 99.34158
3971.196, 99.36188
3971.678, 99.38615
3972.16, 99.41536
3972.642, 99.44623
3973.125, 99.47124
3973.606, 99.48178
3974.089, 99.47034
3974.571, 99.43318
3975.053, 99.37128
3975.535, 99.29012
3976.017, 99.19753
3976.499, 99.10172
3976.981, 99.00939
3977.463, 98.92475
3977.946, 98.85001
3978.428, 98.78721
3978.91, 98.73975
3979.392, 98.71326
3979.874, 98.71487
3980.356, 98.7507
3980.838, 98.82277
3981.32, 98.92588
3981.802, 99.04655
3982.285, 99.16552
3982.767, 99.2626
3983.249, 99.32269
3983.731, 99.341
3984.213, 99.32535
3984.695, 99.29369
3985.177, 99.26768
3985.659, 99.26473
3986.142, 99.29165
3986.624, 99.34171
3987.106, 99.397
3987.588, 99.43518
3988.07, 99.43748
3988.552, 99.39563
3989.034, 99.31487
3989.516, 99.2122
3989.999, 99.11005
3990.481, 99.02958
3990.963, 98.98444
3991.445, 98.97781
3991.927, 99.00378
3992.409, 99.05038
3992.891, 99.10411
3993.373, 99.15349
3993.855, 99.19179
3994.338, 99.21635
3994.82, 99.22834
3995.302, 99.23101
3995.784, 99.22885
3996.266, 99.22615
3996.748, 99.22627
3997.23, 99.23094
3997.712, 99.23958
3998.195, 99.24992
3998.677, 99.25806
3999.159, 99.26048
3999.641, 99.25597
4000.123, 99.24611
$$ === CHEMSPECTRA INTEGRALS AND MULTIPLETS ===
##$OBSERVEDINTEGRALS= (X Y Z)

##$OBSERVEDMULTIPLETS=
##$OBSERVEDMULTIPLETSPEAKS=
$$ === CHEMSPECTRA SIMULATION ===
##$CSSIMULATIONPEAKS=
##END=


$$ === CHEMSPECTRA PEAK TABLE EDIT ===
##TITLE=compound 3-phosphonate-OTBS
##JCAMP-DX=5.00
##DATA TYPE=INFRAREDPEAKTABLE
##DATA CLASS=PEAKTABLE
##$CSCATEGORY=EDIT_PEAK
##$CSTHRESHOLD=0.93
##MAXX=4000.123
##MAXY=101.0864
##MINX=399.6747
##MINY=0.0
##$CSSOLVENTNAME=- - -
##$CSSOLVENTVALUE=0
##$CSSOLVENTX=0
##NPOINTS=17
##PEAKTABLE= (XY..XY)
763.6729, 63.31594
779.5828, 44.26535
815.2594, 51.35069
827.3124, 42.01951
865.3995, 58.88521
983.5182, 49.65277
1003.285, 53.22748
1028.355, 28.09052
1054.871, 44.43513
1252.539, 32.78044
1273.27, 42.20236
1472.867, 66.35963
1482.027, 62.93179
1600.628, 66.43047
2857.024, 63.32425
2930.306, 59.60411
2954.894, 55.69548
##END=


$$ === CHEMSPECTRA PEAK TABLE AUTO ===
##TITLE=compound 3-phosphonate-OTBS
##JCAMP-DX=5.00
##DATA TYPE=INFRAREDPEAKTABLE
##DATA CLASS=PEAKTABLE
##$CSCATEGORY=AUTO_PEAK
##$CSTHRESHOLD=0.93
##MAXX=4000.123
##MAXY=101.0864
##MINX=399.6747
##MINY=0.0
##NPOINTS=68
##PEAKTABLE= (XY..XY)
2156.99, 93.8646
2153.134, 93.76993
2046.104, 93.73644
1959.805, 93.47282
1965.108, 93.44037
636.3941, 93.38892
3032.997, 93.14516
572.7546, 92.99079
3028.658, 92.77274
2017.177, 92.44343
439.6904, 92.09607
2173.382, 92.03185
1995.963, 91.90332
455.6003, 91.86287
2008.016, 91.50297
3008.891, 91.35435
449.8149, 91.3373
1407.781, 91.29106
2026.337, 90.9691
463.3141, 90.82026
473.4386, 90.42064
1975.715, 90.37251
510.0795, 89.49496
1390.907, 89.36293
1361.98, 89.34663
419.9236, 89.1771
613.7346, 88.66194
615.181, 88.65735
483.563, 88.57481
2824.722, 88.33431
410.7634, 88.28369
668.6959, 88.20827
1308.465, 87.84691
1319.554, 87.82059
404.4959, 87.72037
664.839, 87.46261
712.0864, 84.50372
1222.648, 80.78785
733.2996, 80.08335
2886.915, 77.46639
2896.558, 76.65551
1182.632, 76.5041
1152.259, 75.53688
890.4696, 74.79336
1464.189, 72.35205
547.6846, 72.0106
946.3952, 71.89796
1443.458, 71.20255
1586.646, 70.15726
695.6945, 68.93124
1099.226, 66.80152
1600.628, 66.43047
1472.867, 66.35963
2857.024, 63.32425
763.6729, 63.31594
1482.027, 62.93179
2930.306, 59.60411
865.3995, 58.88521
2954.894, 55.69548
1003.285, 53.22748
815.2594, 51.35069
983.5182, 49.65277
1054.871, 44.43513
779.5828, 44.26535
1273.27, 42.20236
827.3124, 42.01951
1252.539, 32.78044
1028.355, 28.09052
##END=

##END=

